Data from Relative__6__14-41-31-125.txt Node

Date: Thu Jun 26 14:41:31 BST 2025
User: Jamie
Spectrometer: HDX00312
Trigger mode: 0
Integration Time (sec): 1.000000E-1
Scans to average: 1
Nonlinearity correction enabled: true
Boxcar width: 0
Storing dark spectrum: false
XAxis mode: Wavelengths
Number of Pixels in Spectrum: 2068
>>>>>Begin Spectral Data<<<<<
196.211	-68.7477
196.582	-199.99848
196.954	100
197.325	-1199.98032
197.696	108.48296
198.067	89.68866
198.438	102.78795
198.809	85.23953
199.18	83.39194
199.551	79.75314
199.922	83.33828
200.293	86.5559
200.663	84.18462
201.034	85.57842
201.404	85.62557
201.774	86.04353
202.144	82.20978
202.515	78.36052
202.885	75.52396
203.255	78.46308
203.625	87.01728
203.994	76.7931
204.364	83.70443
204.734	85.76099
205.103	82.72177
205.473	81.43509
205.842	81.07148
206.212	86.9347
206.581	78.30855
206.95	74.65206
207.319	81.66303
207.688	83.95601
208.057	81.27509
208.426	87.61772
208.795	95.97458
209.163	96.09262
209.532	72.65817
209.9	85.63187
210.269	77.11565
210.637	80.64249
211.005	77.20041
211.374	77.59366
211.742	86.32989
212.11	77.30637
212.478	81.36726
212.846	77.36027
213.213	77.26689
213.581	75.07825
213.949	73.07575
214.316	82.22191
214.684	77.84838
215.051	77.16655
215.418	70.67624
215.786	84.28467
216.153	80.61637
216.52	82.86385
216.887	73.23754
217.254	71.8111
217.62	76.23455
217.987	80.73081
218.354	72.98372
218.72	70.8343
219.087	68.66036
219.453	74.05359
219.819	68.94274
220.186	69.73978
220.552	67.95285
220.918	72.7737
221.284	60.66314
221.65	64.58698
222.016	65.93476
222.381	61.60026
222.747	61.19542
223.113	55.39229
223.478	57.11842
223.844	56.69792
224.209	53.12535
224.574	54.42889
224.939	54.68188
225.304	53.70021
225.669	54.59245
226.034	53.6351
226.399	53.06543
226.764	53.81324
227.129	49.7288
227.493	51.3733
227.858	48.97147
228.222	48.03415
228.587	47.97557
228.951	48.75385
229.315	48.60335
229.679	46.27706
230.043	49.00157
230.407	48.19809
230.771	48.08902
231.135	48.42426
231.499	48.72725
231.862	47.1944
232.226	47.19741
232.589	47.5102
232.953	48.25345
233.316	46.22228
233.679	46.99119
234.042	46.8668
234.405	46.74082
234.768	45.51823
235.131	46.58857
235.494	47.06571
235.857	45.28631
236.22	45.26034
236.582	46.39197
236.945	45.5236
237.307	46.35953
237.669	46.04907
238.032	45.91474
238.394	45.22901
238.756	45.16165
239.118	46.17018
239.48	46.0902
239.842	45.96257
240.204	45.94995
240.565	45.87966
240.927	45.57001
241.288	45.27122
241.65	45.16291
242.011	44.92601
242.373	45.14357
242.734	45.59492
243.095	45.61582
243.456	44.8686
243.817	45.03156
244.178	45.06637
244.539	44.50609
244.899	44.55994
245.26	44.7027
245.621	44.91876
245.981	44.35541
246.341	45.16477
246.702	44.22214
247.062	44.69081
247.422	44.74163
247.782	44.81474
248.142	44.08612
248.502	44.29121
248.862	43.30643
249.222	43.64203
249.582	43.62082
249.941	43.407
250.301	43.97037
250.66	43.26451
251.02	43.38551
251.379	43.411
251.738	43.67075
252.097	44.28752
252.456	43.30928
252.815	43.2409
253.174	43.25446
253.533	43.44696
253.892	43.41887
254.25	43.42931
254.609	43.351
254.967	43.22594
255.326	43.83944
255.684	43.62982
256.042	43.47136
256.4	43.95021
256.759	43.82575
257.117	43.7648
257.474	44.1549
257.832	44.10399
258.19	44.39281
258.548	43.99101
258.905	43.56744
259.263	44.63737
259.62	44.20367
259.978	44.5635
260.335	44.72288
260.692	45.1434
261.049	45.19075
261.406	45.39993
261.763	45.00469
262.12	44.86593
262.477	46.48285
262.834	45.42288
263.19	46.44781
263.547	46.33918
263.904	46.7558
264.26	46.93194
264.616	46.29988
264.973	46.74856
265.329	47.08338
265.685	47.67482
266.041	48.55474
266.397	49.19048
266.753	48.39743
267.108	49.0738
267.464	49.60394
267.82	49.56502
268.175	48.99009
268.531	49.74713
268.886	50.08905
269.241	49.95816
269.597	49.91772
269.952	50.18558
270.307	51.72894
270.662	51.52098
271.017	51.2178
271.371	51.71861
271.726	51.74491
272.081	52.20339
272.435	51.94302
272.79	52.48539
273.144	51.99922
273.499	52.3946
273.853	52.54691
274.207	53.30685
274.561	52.52168
274.915	53.09802
275.269	53.15306
275.623	53.61816
275.977	53.61677
276.331	53.89099
276.684	53.4797
277.038	54.19433
277.391	53.50013
277.745	54.0718
278.098	54.37075
278.451	54.75388
278.804	54.09175
279.157	54.76285
279.51	54.9574
279.863	54.85974
280.216	55.11893
280.569	54.33054
280.922	55.26697
281.274	54.99316
281.627	55.39984
281.979	55.08494
282.332	55.36588
282.684	55.34303
283.036	55.56914
283.388	54.88999
283.74	55.79438
284.092	55.16581
284.444	55.65582
284.796	55.43397
285.148	55.61974
285.499	55.64431
285.851	54.93185
286.202	55.50597
286.554	55.22311
286.905	55.98631
287.257	55.22063
287.608	55.47104
287.959	55.1063
288.31	54.5481
288.661	55.2893
289.012	55.11906
289.362	55.0601
289.713	55.05167
290.064	54.56674
290.414	54.97436
290.765	54.82791
291.115	54.68481
291.466	53.77619
291.816	54.66656
292.166	54.41034
292.516	54.16737
292.866	53.46294
293.216	54.16711
293.566	53.7729
293.916	53.47164
294.265	53.34797
294.615	53.52177
294.964	54.01402
295.314	52.97794
295.663	53.45494
296.013	53.71201
296.362	53.36189
296.711	53.05989
297.06	53.41833
297.409	53.41219
297.758	52.85867
298.107	52.26169
298.455	52.72227
298.804	52.03053
299.153	52.1438
299.501	52.08565
299.85	51.89733
300.198	51.49542
300.546	51.66932
300.894	51.56644
301.243	51.32433
301.591	51.819
301.939	51.34345
302.287	51.42728
302.634	50.63847
302.982	51.39847
303.33	51.09692
303.677	50.73947
304.025	50.59897
304.372	50.29487
304.72	50.54759
305.067	50.47714
305.414	50.2737
305.761	50.01563
306.108	49.93829
306.455	49.53938
306.802	49.7454
307.149	49.68272
307.495	49.31502
307.842	49.14674
308.189	49.38863
308.535	49.03659
308.882	48.93687
309.228	48.74417
309.574	48.74048
309.92	48.60353
310.266	48.6077
310.612	48.62246
310.958	48.0393
311.304	48.80226
311.65	48.18104
311.996	48.03032
312.341	47.50235
312.687	48.21619
313.032	47.84109
313.378	47.75043
313.723	47.23031
314.068	47.15848
314.413	47.46633
314.759	47.98101
315.104	47.1613
315.449	46.72057
315.793	47.35508
316.138	47.15522
316.483	46.784
316.827	46.95144
317.172	47.4104
317.516	46.73588
317.861	47.60096
318.205	46.69869
318.549	47.10846
318.894	46.86776
319.238	47.08985
319.582	46.93001
319.926	46.63081
320.269	46.86881
320.613	46.35045
320.957	46.45761
321.3	46.39635
321.644	46.89552
321.987	46.48247
322.331	46.60764
322.674	46.74341
323.017	46.63885
323.36	46.15603
323.704	46.58762
324.047	46.4684
324.389	46.27087
324.732	46.31115
325.075	46.87759
325.418	47.18684
325.76	46.24768
326.103	45.8343
326.445	46.87699
326.788	46.8007
327.13	46.37135
327.472	46.115
327.814	46.2026
328.156	46.2955
328.498	46.45757
328.84	47.04092
329.182	47.12873
329.524	46.56792
329.866	46.70972
330.207	46.38669
330.549	46.85727
330.89	46.23609
331.231	46.49327
331.573	45.90029
331.914	46.21487
332.255	46.37865
332.596	46.42657
332.937	45.92699
333.278	45.88387
333.619	45.74951
333.96	45.55739
334.3	46.06977
334.641	45.51802
334.981	45.73732
335.322	46.25325
335.662	45.73203
336.003	45.97122
336.343	46.11304
336.683	45.9886
337.023	45.68164
337.363	45.71492
337.703	45.70074
338.043	45.66952
338.382	46.08032
338.722	46.11459
339.062	45.88058
339.401	45.95346
339.741	45.23042
340.08	46.00617
340.419	45.20126
340.759	45.44428
341.098	45.60798
341.437	45.80613
341.776	45.7783
342.115	45.83322
342.454	45.72356
342.792	45.58516
343.131	45.20698
343.47	45.70216
343.808	45.54598
344.147	45.63718
344.485	45.99435
344.823	45.58907
345.162	45.40229
345.5	44.97804
345.838	45.773
346.176	45.93614
346.514	46.27557
346.851	45.86918
347.189	45.99943
347.527	45.14505
347.865	46.54377
348.202	45.82237
348.54	46.48891
348.877	45.89539
349.214	45.9135
349.551	46.08527
349.889	46.31904
350.226	46.25364
350.563	46.70441
350.9	45.97892
351.236	46.31572
351.573	45.88485
351.91	46.3095
352.247	46.52867
352.583	45.83941
352.92	45.98562
353.256	46.47464
353.592	45.0783
353.929	44.89971
354.265	46.10165
354.601	45.67238
354.937	46.22863
355.273	45.72932
355.609	45.80539
355.944	45.68978
356.28	46.2516
356.616	46.05223
356.951	45.95231
357.287	45.68861
357.622	45.51363
357.957	45.94965
358.293	45.22365
358.628	45.86518
358.963	45.28525
359.298	45.10927
359.633	46.04272
359.968	45.52119
360.303	45.52947
360.637	45.27894
360.972	45.75012
361.307	45.42545
361.641	45.32044
361.975	45.86497
362.31	44.82729
362.644	45.165
362.978	44.95493
363.312	45.2159
363.646	45.71861
363.98	45.95148
364.314	45.41638
364.648	45.68482
364.982	45.59398
365.315	45.76877
365.649	45.47312
365.983	45.70562
366.316	46.2585
366.649	45.94042
366.983	45.44069
367.316	45.51613
367.649	45.70191
367.982	46.41235
368.315	46.53191
368.648	45.9704
368.981	45.21701
369.313	45.88381
369.646	45.73383
369.979	46.04963
370.311	45.64997
370.644	45.14156
370.976	45.95662
371.308	45.23551
371.641	45.63961
371.973	45.27768
372.305	45.47473
372.637	45.49718
372.969	45.73157
373.301	45.4923
373.632	46.31668
373.964	45.39118
374.296	44.61059
374.627	44.88929
374.959	45.04671
375.29	45.39807
375.621	44.58959
375.953	44.31685
376.284	45.28309
376.615	45.27062
376.946	45.66743
377.277	45.56107
377.608	44.32862
377.939	45.08516
378.269	44.97352
378.6	44.65019
378.931	44.14179
379.261	44.85644
379.591	43.98194
379.922	44.2555
380.252	45.07644
380.582	44.46128
380.912	44.24963
381.242	44.7359
381.572	44.25683
381.902	44.37883
382.232	44.58949
382.562	44.23323
382.891	44.51103
383.221	43.90682
383.551	44.48164
383.88	45.47685
384.209	44.96027
384.539	44.62066
384.868	44.92076
385.197	44.55397
385.526	44.96306
385.855	43.81952
386.184	44.21296
386.513	44.78617
386.842	44.86099
387.17	44.59148
387.499	43.94388
387.828	44.55734
388.156	44.36727
388.484	44.74148
388.813	44.36627
389.141	44.33279
389.469	44.56725
389.797	43.95399
390.125	44.50665
390.453	44.70246
390.781	44.4686
391.109	43.78411
391.437	44.20731
391.764	43.95995
392.092	44.4229
392.419	44.50372
392.747	44.34791
393.074	44.08026
393.401	44.27648
393.729	43.71437
394.056	44.33824
394.383	44.42665
394.71	43.91931
395.037	43.77627
395.363	44.12535
395.69	44.12016
396.017	44.57209
396.344	43.79365
396.67	43.72676
396.997	44.13579
397.323	43.83539
397.649	43.96299
397.975	43.86245
398.302	43.90199
398.628	43.79775
398.954	44.06151
399.28	43.40044
399.606	43.23164
399.931	44.32365
400.257	43.63776
400.583	43.64669
400.908	43.86312
401.234	43.04413
401.559	43.55829
401.884	43.11418
402.21	43.28016
402.535	43.71522
402.86	44.34638
403.185	44.26663
403.51	43.88961
403.835	43.22462
404.16	43.97182
404.485	42.98769
404.809	44.40735
405.134	44.68167
405.458	44.0528
405.783	44.02219
406.107	43.39559
406.432	44.77453
406.756	43.55984
407.08	43.23849
407.404	43.73029
407.728	43.67519
408.052	43.6231
408.376	43.6466
408.7	44.48791
409.023	44.12304
409.347	44.71794
409.671	44.5745
409.994	43.97272
410.317	43.7185
410.641	43.72707
410.964	43.77487
411.287	44.25484
411.61	43.97334
411.933	43.83488
412.256	44.12558
412.579	43.32598
412.902	43.73924
413.225	44.1544
413.548	44.03239
413.87	43.53573
414.193	43.69522
414.515	43.61115
414.838	43.75795
415.16	43.08838
415.482	43.50772
415.804	43.7957
416.126	43.74143
416.448	43.64505
416.77	42.93239
417.092	43.52401
417.414	44.05212
417.736	43.2133
418.057	43.49036
418.379	43.83493
418.701	42.88439
419.022	43.04601
419.343	43.10073
419.665	42.93401
419.986	43.61232
420.307	42.78151
420.628	43.40561
420.949	42.89829
421.27	43.44636
421.591	44.07965
421.912	43.67526
422.232	43.35773
422.553	43.55529
422.873	43.49111
423.194	43.52831
423.514	43.37279
423.835	43.81409
424.155	43.17253
424.475	44.2552
424.795	44.24418
425.115	44.02613
425.435	44.0976
425.755	44.52216
426.075	44.69006
426.395	43.38357
426.714	44.00527
427.034	45.10039
427.354	44.85093
427.673	44.45724
427.992	45.18781
428.312	44.0211
428.631	44.78711
428.95	43.90172
429.269	44.58017
429.588	45.27829
429.907	44.92985
430.226	44.13009
430.545	44.07292
430.864	44.82788
431.182	44.55761
431.501	44.29414
431.819	44.34433
432.138	43.86225
432.456	43.92947
432.774	44.97795
433.093	44.63081
433.411	44.81291
433.729	44.47455
434.047	44.40105
434.365	45.17228
434.683	45.74679
435	45.00807
435.318	45.01208
435.636	44.80348
435.953	45.44806
436.271	44.65074
436.588	44.20241
436.906	44.42617
437.223	44.78897
437.54	44.3072
437.857	45.02692
438.174	44.47475
438.491	45.29342
438.808	44.60611
439.125	43.87597
439.442	44.50024
439.758	45.21765
440.075	44.18624
440.392	45.0422
440.708	45.0374
441.024	43.73603
441.341	44.67965
441.657	44.83731
441.973	44.30164
442.289	45.75702
442.605	44.96266
442.921	44.16306
443.237	45.8936
443.553	45.31338
443.869	45.07831
444.184	44.29331
444.5	46.14136
444.816	45.1304
445.131	45.06477
445.446	45.07049
445.762	45.42365
446.077	46.56279
446.392	44.94489
446.707	44.9435
447.022	44.57941
447.337	45.98091
447.652	45.72609
447.967	45.21443
448.282	45.6733
448.596	44.64833
448.911	46.1129
449.225	46.88371
449.54	45.30042
449.854	45.97125
450.169	44.75345
450.483	45.41803
450.797	44.5518
451.111	44.78422
451.425	45.12413
451.739	45.79921
452.053	45.65071
452.367	45.58045
452.68	46.53287
452.994	45.45043
453.308	45.40118
453.621	45.31862
453.935	46.15991
454.248	44.64967
454.561	45.81505
454.874	45.72662
455.188	45.70545
455.501	44.58443
455.814	46.30632
456.127	46.50914
456.44	44.73874
456.752	44.97656
457.065	45.3218
457.378	45.05029
457.69	46.04583
458.003	44.23933
458.315	45.84524
458.628	45.7635
458.94	46.23158
459.252	45.40467
459.564	46.042
459.876	45.17388
460.188	45.80167
460.5	45.77052
460.812	45.22126
461.124	44.8658
461.436	46.35348
461.747	45.22274
462.059	44.02953
462.37	45.13385
462.682	46.18977
462.993	44.8248
463.304	45.39785
463.616	44.44552
463.927	46.0423
464.238	44.44234
464.549	44.33251
464.86	45.39604
465.171	45.29961
465.481	45.0171
465.792	44.89352
466.103	45.88246
466.413	45.62332
466.724	44.33403
467.034	45.0726
467.345	45.31293
467.655	45.61019
467.965	44.86572
468.275	44.78471
468.585	45.00504
468.895	44.69893
469.205	44.21598
469.515	45.39605
469.825	45.30188
470.135	45.05025
470.444	44.8854
470.754	45.2046
471.063	44.3475
471.373	44.96629
471.682	46.05141
471.991	44.90329
472.301	45.01965
472.61	45.80539
472.919	45.63841
473.228	45.84914
473.537	45.0315
473.846	44.54373
474.155	44.71772
474.463	44.78521
474.772	45.01621
475.08	44.86148
475.389	45.14939
475.697	44.18959
476.006	44.15932
476.314	45.1489
476.622	45.41863
476.93	45.08097
477.239	44.73697
477.547	45.52519
477.855	45.05984
478.162	44.5812
478.47	44.61734
478.778	44.99843
479.086	44.50897
479.393	44.55608
479.701	44.7873
480.008	43.72023
480.315	45.02786
480.623	44.34424
480.93	44.24774
481.237	44.2083
481.544	43.79857
481.851	45.03308
482.158	44.91685
482.465	44.85474
482.772	44.49296
483.079	44.18382
483.385	45.0836
483.692	44.28858
483.998	44.58548
484.305	43.72741
484.611	44.02838
484.918	44.6172
485.224	43.96709
485.53	44.52753
485.836	43.80256
486.142	44.47243
486.448	44.47563
486.754	44.4833
487.06	44.2788
487.366	43.56775
487.671	43.26159
487.977	44.50957
488.282	43.23543
488.588	44.6324
488.893	44.44003
489.199	44.26034
489.504	44.07447
489.809	44.00635
490.114	44.17105
490.419	44.33741
490.724	44.89632
491.029	44.04854
491.334	44.06138
491.639	43.7055
491.943	44.65319
492.248	44.31891
492.553	44.58641
492.857	44.15421
493.162	44.1227
493.466	44.60929
493.77	44.87469
494.074	44.82491
494.378	44.90299
494.683	44.44102
494.987	44.5972
495.29	43.86719
495.594	44.30013
495.898	44.38491
496.202	44.22274
496.505	44.23607
496.809	44.94401
497.113	44.4081
497.416	44.45139
497.719	44.54281
498.023	44.79312
498.326	44.29258
498.629	45.13149
498.932	44.83774
499.235	44.45221
499.538	44.80038
499.841	44.06916
500.144	44.42325
500.446	45.40467
500.749	45.18657
501.052	44.62952
501.354	44.87372
501.657	45.20186
501.959	44.55481
502.261	44.81474
502.564	44.70265
502.866	44.77301
503.168	44.12986
503.47	45.31264
503.772	44.95631
504.074	45.1312
504.376	44.75027
504.677	44.87228
504.979	44.50363
505.281	45.26669
505.582	45.29302
505.884	45.60639
506.185	45.73696
506.486	45.19276
506.788	45.98118
507.089	45.37413
507.39	45.0981
507.691	45.5236
507.992	45.40036
508.293	45.08363
508.594	45.81648
508.895	44.96553
509.195	45.82521
509.496	46.04021
509.797	45.80973
510.097	45.91317
510.398	45.46383
510.698	46.23743
510.998	45.84826
511.298	45.80078
511.599	46.19059
511.899	45.66299
512.199	45.73378
512.499	46.35131
512.799	46.41846
513.098	46.82119
513.398	46.32469
513.698	46.24176
513.997	46.8383
514.297	47.18096
514.596	46.82866
514.896	46.57852
515.195	47.52523
515.494	47.20705
515.794	47.288
516.093	47.37809
516.392	47.78248
516.691	47.06823
516.99	48.08657
517.288	47.84957
517.587	47.35398
517.886	47.93738
518.185	48.41066
518.483	48.66755
518.782	48.01461
519.08	48.55855
519.378	48.89165
519.677	49.01993
519.975	47.97938
520.273	48.60079
520.571	49.3797
520.869	48.77363
521.167	49.51375
521.465	49.68087
521.763	49.8296
522.061	49.16134
522.358	49.65987
522.656	49.57838
522.953	50.39677
523.251	49.65641
523.548	51.10002
523.846	50.43731
524.143	50.15036
524.44	50.35622
524.737	50.97061
525.034	51.21801
525.331	50.47933
525.628	50.74731
525.925	50.79457
526.222	51.08818
526.518	51.58491
526.815	50.94647
527.112	51.33559
527.408	51.15318
527.705	51.86675
528.001	50.91153
528.297	51.13749
528.593	52.0265
528.89	51.79634
529.186	51.77901
529.482	51.14996
529.778	51.61892
530.074	51.65483
530.369	51.88095
530.665	51.6018
530.961	51.5226
531.256	51.75407
531.552	51.6354
531.847	51.96461
532.143	52.14457
532.438	52.03228
532.733	52.08205
533.029	51.6047
533.324	51.73425
533.619	51.17827
533.914	51.64886
534.209	51.68885
534.504	50.71569
534.798	51.34051
535.093	51.1485
535.388	51.65964
535.682	51.38339
535.977	51.35546
536.271	51.54555
536.566	50.83853
536.86	51.66009
537.154	51.63748
537.448	51.22624
537.742	51.308
538.037	52.39168
538.33	50.82852
538.624	51.13785
538.918	51.27761
539.212	51.58065
539.506	51.5102
539.799	51.27632
540.093	51.48462
540.386	51.77505
540.68	51.42847
540.973	51.23595
541.266	51.65842
541.56	52.53046
541.853	51.40075
542.146	52.01167
542.439	51.52026
542.732	51.69627
543.025	51.77324
543.318	52.00368
543.61	51.58386
543.903	52.10711
544.196	51.96225
544.488	52.00341
544.781	51.29324
545.073	51.85395
545.365	51.48213
545.658	51.62071
545.95	52.54103
546.242	52.37433
546.534	51.41218
546.826	52.01838
547.118	51.4453
547.41	51.62745
547.702	51.44191
547.993	52.14887
548.285	51.78365
548.577	51.67406
548.868	51.83453
549.16	52.3182
549.451	52.17086
549.742	52.66802
550.034	52.37756
550.325	52.85739
550.616	52.55321
550.907	53.1521
551.198	52.92655
551.489	52.83399
551.78	53.02316
552.07	52.99407
552.361	52.82726
552.652	52.91557
552.942	52.86473
553.233	53.44244
553.523	53.64312
553.814	53.17965
554.104	52.81377
554.394	53.03692
554.684	53.05658
554.975	52.96869
555.265	53.52673
555.555	53.06425
555.845	53.27947
556.134	52.84069
556.424	53.11273
556.714	53.44094
557.003	53.26558
557.293	53.29441
557.583	53.149
557.872	53.11955
558.161	53.12272
558.451	52.68837
558.74	52.47457
559.029	53.55173
559.318	53.03791
559.607	53.24529
559.896	53.2245
560.185	52.65493
560.474	52.93832
560.763	53.00997
561.051	52.66682
561.34	53.35512
561.629	53.31289
561.917	52.65118
562.205	52.76996
562.494	52.64162
562.782	52.27395
563.07	52.79913
563.359	52.58101
563.647	52.45419
563.935	52.16458
564.223	51.73704
564.51	52.2828
564.798	51.81234
565.086	52.29106
565.374	51.57414
565.661	52.11155
565.949	51.57086
566.236	52.35562
566.524	51.93525
566.811	51.83623
567.099	51.94356
567.386	51.34823
567.673	51.73117
567.96	52.18711
568.247	51.97716
568.534	51.65955
568.821	51.32456
569.108	51.83785
569.394	51.5972
569.681	51.77759
569.968	51.63882
570.254	51.25795
570.541	51.56537
570.827	51.64963
571.114	51.54194
571.4	51.53733
571.686	51.23094
571.972	51.3718
572.258	51.18536
572.544	51.53443
572.83	51.58154
573.116	51.02942
573.402	50.59589
573.688	50.8209
573.973	50.66489
574.259	51.15218
574.545	50.51195
574.83	50.30471
575.116	51.0667
575.401	50.39498
575.686	50.8994
575.971	50.13197
576.257	50.04805
576.542	50.26983
576.827	50.63843
577.112	50.7583
577.397	50.46768
577.681	50.41096
577.966	49.78843
578.251	50.13982
