Data from Reflection__4__15-52-14-881.txt Node

Date: Wed Jul 02 15:52:14 BST 2025
User: Jamie
Spectrometer: HDX00312
Trigger mode: 0
Integration Time (sec): 6.900000E-2
Scans to average: 10
Nonlinearity correction enabled: true
Boxcar width: 0
Storing dark spectrum: false
XAxis mode: Wavelengths
Number of Pixels in Spectrum: 2068
>>>>>Begin Spectral Data<<<<<
196.211	129.57713
196.582	111.00901
196.954	103.19145
197.325	164.63305
197.696	103.4144
198.067	94.14735
198.438	94.0832
198.809	85.3796
199.18	83.43807
199.551	80.04227
199.922	83.2625
200.293	81.65837
200.663	85.27688
201.034	84.14728
201.404	80.72478
201.774	79.99063
202.144	81.98239
202.515	87.34099
202.885	85.06641
203.255	81.70192
203.625	80.29964
203.994	82.13553
204.364	81.10223
204.734	79.02159
205.103	81.04662
205.473	82.35112
205.842	84.60255
206.212	82.47437
206.581	82.79977
206.95	80.35436
207.319	79.67691
207.688	80.79937
208.057	79.99153
208.426	79.86558
208.795	79.28882
209.163	82.1643
209.532	79.56738
209.9	81.70718
210.269	79.26357
210.637	78.24891
211.005	80.85362
211.374	79.79153
211.742	81.18236
212.11	76.53766
212.478	77.27029
212.846	78.94829
213.213	78.67345
213.581	78.50236
213.949	76.3953
214.316	75.22576
214.684	79.90887
215.051	76.67796
215.418	73.9516
215.786	74.70404
216.153	73.79122
216.52	75.81734
216.887	72.23564
217.254	75.65818
217.62	75.13037
217.987	70.97629
218.354	73.12484
218.72	70.75417
219.087	69.01886
219.453	68.68373
219.819	65.1352
220.186	65.91101
220.552	64.73628
220.918	63.57392
221.284	62.00012
221.65	60.77799
222.016	59.22437
222.381	58.47467
222.747	57.51838
223.113	58.30569
223.478	57.47154
223.844	55.62346
224.209	56.06379
224.574	53.75267
224.939	53.9572
225.304	53.22747
225.669	52.8591
226.034	52.52994
226.399	52.48928
226.764	51.55825
227.129	51.88552
227.493	51.35042
227.858	51.28371
228.222	50.97744
228.587	50.59693
228.951	50.53173
229.315	50.29551
229.679	50.01849
230.043	50.01799
230.407	50.24862
230.771	49.65135
231.135	49.42433
231.499	49.48455
231.862	49.55531
232.226	49.26957
232.589	49.25139
232.953	49.15826
233.316	49.16176
233.679	49.02993
234.042	49.11025
234.405	49.48101
234.768	49.17893
235.131	49.43678
235.494	49.29388
235.857	49.52324
236.22	49.46543
236.582	49.57252
236.945	49.81547
237.307	49.74753
237.669	49.82948
238.032	50.14015
238.394	50.14552
238.756	50.21753
239.118	50.13472
239.48	49.95365
239.842	50.39531
240.204	50.66875
240.565	50.65291
240.927	50.47062
241.288	50.46433
241.65	50.66889
242.011	50.52846
242.373	50.54428
242.734	50.39605
243.095	50.50494
243.456	50.69689
243.817	50.27484
244.178	50.48256
244.539	50.38077
244.899	50.28263
245.26	50.26744
245.621	50.23221
245.981	50.11472
246.341	50.06692
246.702	50.09038
247.062	49.90419
247.422	50.02962
247.782	49.69995
248.142	49.62234
248.502	49.64894
248.862	49.46318
249.222	49.29894
249.582	49.50386
249.941	49.30723
250.301	49.20055
250.66	49.07821
251.02	48.92378
251.379	48.76311
251.738	48.71711
252.097	48.70825
252.456	48.51951
252.815	48.67323
253.174	48.45337
253.533	48.43482
253.892	48.70489
254.25	48.30168
254.609	48.50071
254.967	48.06429
255.326	48.11243
255.684	48.23692
256.042	48.27151
256.4	48.08146
256.759	48.3857
257.117	47.94342
257.474	48.07504
257.832	48.2809
258.19	48.13043
258.548	48.25091
258.905	48.22246
259.263	48.30288
259.62	48.35357
259.978	48.35309
260.335	48.4548
260.692	48.38075
261.049	48.56267
261.406	48.59565
261.763	48.77014
262.12	48.77571
262.477	49.03796
262.834	49.02107
263.19	49.11067
263.547	49.20131
263.904	49.2464
264.26	49.37635
264.616	49.60336
264.973	49.53492
265.329	49.61071
265.685	49.96583
266.041	49.97209
266.397	50.15564
266.753	50.39054
267.108	50.31088
267.464	50.73091
267.82	50.80616
268.175	51.04101
268.531	51.07634
268.886	51.22589
269.241	51.36043
269.597	51.47422
269.952	51.60322
270.307	51.78164
270.662	52.11538
271.017	52.23644
271.371	52.54964
271.726	52.33515
272.081	52.46292
272.435	52.7427
272.79	52.85071
273.144	52.98154
273.499	53.12944
273.853	53.31646
274.207	53.36981
274.561	53.49091
274.915	53.6127
275.269	53.63684
275.623	53.75972
275.977	54.09487
276.331	53.99773
276.684	54.08667
277.038	54.48423
277.391	54.22196
277.745	54.37981
278.098	54.60272
278.451	54.69103
278.804	54.68523
279.157	54.71268
279.51	54.97507
279.863	54.90056
280.216	55.29645
280.569	55.19199
280.922	55.4207
281.274	55.51233
281.627	55.50556
281.979	55.7739
282.332	55.66484
282.684	56.07422
283.036	56.03472
283.388	56.34129
283.74	56.26495
284.092	56.24734
284.444	56.41969
284.796	56.39384
285.148	56.59099
285.499	56.89675
285.851	56.82399
286.202	56.71475
286.554	57.16322
286.905	57.20089
287.257	57.1131
287.608	57.38616
287.959	57.34783
288.31	57.47048
288.661	57.82378
289.012	57.87534
289.362	57.95664
289.713	58.13916
290.064	58.51172
290.414	58.27691
290.765	58.22718
291.115	58.43538
291.466	58.62689
291.816	58.72619
292.166	58.92567
292.516	59.03134
292.866	58.89381
293.216	58.93177
293.566	59.0074
293.916	59.27663
294.265	59.11354
294.615	59.28088
294.964	59.30857
295.314	59.45594
295.663	59.50906
296.013	59.53566
296.362	59.51934
296.711	59.74314
297.06	59.53938
297.409	59.7707
297.758	59.77713
298.107	59.82868
298.455	59.81386
298.804	59.75039
299.153	59.83921
299.501	59.80544
299.85	59.98685
300.198	59.83168
300.546	59.68502
300.894	59.78912
301.243	59.68988
301.591	59.74754
301.939	59.81688
302.287	59.72186
302.634	59.8525
302.982	59.49635
303.33	59.67214
303.677	59.7814
304.025	59.58792
304.372	59.73085
304.72	59.68129
305.067	59.60102
305.414	59.58733
305.761	59.76045
306.108	59.55025
306.455	59.66479
306.802	59.66095
307.149	59.83789
307.495	59.51678
307.842	59.51802
308.189	59.59993
308.535	59.60185
308.882	59.62598
309.228	59.38756
309.574	59.554
309.92	59.61906
310.266	59.33223
310.612	59.7163
310.958	59.48961
311.304	59.36926
311.65	59.20645
311.996	59.583
312.341	59.24613
312.687	59.26614
313.032	59.49658
313.378	59.33905
313.723	59.47838
314.068	59.2448
314.413	59.17788
314.759	59.31374
315.104	59.52188
315.449	59.12359
315.793	59.21825
316.138	59.16662
316.483	59.35252
316.827	59.24539
317.172	59.26099
317.516	59.15521
317.861	59.23829
318.205	59.05799
318.549	59.19821
318.894	59.14213
319.238	59.20359
319.582	59.13966
319.926	59.00885
320.269	59.08148
320.613	58.97511
320.957	59.25728
321.3	58.84917
321.644	58.72082
321.987	59.03448
322.331	59.08497
322.674	58.82475
323.017	58.83868
323.36	58.75377
323.704	58.66312
324.047	58.55894
324.389	58.62585
324.732	58.64053
325.075	58.5201
325.418	58.38877
325.76	58.46888
326.103	58.56736
326.445	58.51601
326.788	58.45129
327.13	58.33813
327.472	58.5957
327.814	58.42136
328.156	58.26716
328.498	58.48566
328.84	58.37982
329.182	58.44837
329.524	58.53525
329.866	58.60296
330.207	58.40718
330.549	58.46207
330.89	58.52576
331.231	58.43774
331.573	58.56829
331.914	58.59184
332.255	58.4226
332.596	58.26181
332.937	58.53769
333.278	58.57021
333.619	58.28409
333.96	58.43405
334.3	58.38323
334.641	58.51406
334.981	58.47078
335.322	58.56173
335.662	58.36071
336.003	58.27421
336.343	58.40029
336.683	58.46958
337.023	58.5484
337.363	58.38192
337.703	58.33326
338.043	58.43187
338.382	58.50759
338.722	58.62809
339.062	58.43567
339.401	58.63959
339.741	58.41991
340.08	58.27663
340.419	58.52597
340.759	58.58504
341.098	58.39755
341.437	58.44652
341.776	58.52562
342.115	58.60378
342.454	58.44315
342.792	58.31509
343.131	58.44271
343.47	58.71661
343.808	58.81613
344.147	58.57856
344.485	58.59867
344.823	58.70052
345.162	58.98922
345.5	58.6278
345.838	58.66742
346.176	58.6383
346.514	58.68535
346.851	58.6907
347.189	58.52239
347.527	58.73423
347.865	58.6443
348.202	58.7193
348.54	58.55167
348.877	58.76325
349.214	58.59067
349.551	58.6506
349.889	58.82009
350.226	58.79358
350.563	58.8234
350.9	58.70399
351.236	58.46315
351.573	58.75102
351.91	58.78668
352.247	58.6342
352.583	58.76397
352.92	58.60566
353.256	58.94781
353.592	58.51627
353.929	58.6028
354.265	58.58084
354.601	58.4593
354.937	58.52841
355.273	58.80358
355.609	58.74471
355.944	58.83197
356.28	58.75647
356.616	58.42927
356.951	58.55797
357.287	58.73387
357.622	58.79223
357.957	58.59136
358.293	58.57241
358.628	58.56929
358.963	58.91125
359.298	58.46433
359.633	58.60242
359.968	58.36253
360.303	58.39708
360.637	58.4502
360.972	58.55167
361.307	58.36463
361.641	58.47637
361.975	58.70469
362.31	58.50179
362.644	58.4508
362.978	58.44756
363.312	58.33827
363.646	58.33679
363.98	58.41854
364.314	58.26132
364.648	58.29156
364.982	58.50486
365.315	58.46377
365.649	58.47819
365.983	58.2574
366.316	58.3182
366.649	58.23388
366.983	58.35728
367.316	58.38006
367.649	58.2694
367.982	58.41674
368.315	58.13237
368.648	58.57275
368.981	58.17365
369.313	58.38222
369.646	58.21017
369.979	58.10106
370.311	58.2003
370.644	58.211
370.976	58.46724
371.308	58.10905
371.641	58.25236
371.973	58.16222
372.305	58.2074
372.637	58.13217
372.969	58.39189
373.301	58.06223
373.632	57.97441
373.964	58.42467
374.296	58.14185
374.627	57.87235
374.959	57.85645
375.29	58.05844
375.621	57.90499
375.953	58.17017
376.284	57.90273
376.615	57.96304
376.946	58.22025
377.277	58.05261
377.608	57.85259
377.939	58.19013
378.269	58.14273
378.6	57.88867
378.931	57.88306
379.261	57.6524
379.591	57.84936
379.922	58.04439
380.252	57.84308
380.582	57.63974
380.912	57.79158
381.242	57.73788
381.572	57.81392
381.902	57.47343
382.232	57.72485
382.562	57.81827
382.891	57.58464
383.221	57.56645
383.551	57.54355
383.88	57.59198
384.209	57.7154
384.539	57.41187
384.868	57.76513
385.197	57.45476
385.526	57.35345
385.855	57.35181
386.184	57.45853
386.513	57.19599
386.842	57.44409
387.17	57.71793
387.499	57.39028
387.828	57.18679
388.156	57.69845
388.484	57.40452
388.813	57.65515
389.141	57.5619
389.469	57.34189
389.797	57.52032
390.125	57.49952
390.453	57.34036
390.781	57.21678
391.109	57.59065
391.437	57.32349
391.764	57.28943
392.092	57.33293
392.419	57.10364
392.747	57.366
393.074	57.19327
393.401	57.24661
393.729	57.30977
394.056	57.14838
394.383	57.48484
394.71	57.44507
395.037	57.38362
395.363	57.37186
395.69	57.37909
396.017	57.33568
396.344	57.38614
396.67	57.34477
396.997	57.27368
397.323	57.19085
397.649	57.23466
397.975	57.13829
398.302	57.02995
398.628	57.25074
398.954	56.92834
399.28	57.17874
399.606	57.17608
399.931	57.43239
400.257	57.21617
400.583	57.27026
400.908	57.4627
401.234	57.01871
401.559	57.0768
401.884	57.17317
402.21	57.13074
402.535	57.24883
402.86	56.99865
403.185	57.30279
403.51	57.12082
403.835	57.11104
404.16	56.95853
404.485	56.98802
404.809	56.99989
405.134	56.93229
405.458	57.13541
405.783	57.1347
406.107	56.91186
406.432	57.16373
406.756	57.12143
407.08	57.14102
407.404	56.86694
407.728	57.45861
408.052	57.32839
408.376	57.22561
408.7	57.06896
409.023	57.13947
409.347	57.55977
409.671	57.27411
409.994	57.3513
410.317	57.35916
410.641	57.18959
410.964	57.45514
411.287	57.35257
411.61	57.1395
411.933	57.34569
412.256	57.48742
412.579	57.28844
412.902	57.30457
413.225	57.30239
413.548	57.46765
413.87	57.7175
414.193	57.47027
414.515	57.62987
414.838	57.36073
415.16	57.45608
415.482	57.6995
415.804	57.79843
416.126	57.59847
416.448	57.60983
416.77	57.67202
417.092	57.8743
417.414	57.55322
417.736	57.80026
418.057	57.67936
418.379	57.67901
418.701	57.9728
419.022	58.09587
419.343	57.75106
419.665	57.79549
419.986	57.53253
420.307	57.96073
420.628	57.93573
420.949	57.79206
421.27	58.01366
421.591	57.79234
421.912	57.78195
422.232	57.68018
422.553	57.96743
422.873	58.04935
423.194	58.02755
423.514	58.05379
423.835	57.78622
424.155	57.87796
424.475	57.91772
424.795	58.18786
425.115	58.11318
425.435	58.04611
425.755	57.91878
426.075	58.16188
426.395	58.08009
426.714	57.84431
427.034	58.11717
427.354	58.19538
427.673	58.66929
427.992	58.07484
428.312	57.96443
428.631	58.36268
428.95	58.39986
429.269	58.20518
429.588	58.04419
429.907	58.07116
430.226	58.3948
430.545	58.53149
430.864	58.41724
431.182	58.37376
431.501	58.83675
431.819	58.78741
432.138	58.68027
432.456	58.57478
432.774	58.28609
433.093	58.65781
433.411	58.50076
433.729	58.40853
434.047	58.6293
434.365	58.71226
434.683	58.38378
435	58.96008
435.318	59.03711
435.636	58.87314
435.953	58.74592
436.271	59.03113
436.588	58.41323
436.906	59.15483
437.223	59.20599
437.54	59.10467
437.857	58.70129
438.174	58.72027
438.491	58.45934
438.808	58.5497
439.125	58.77558
439.442	58.54045
439.758	58.50987
440.075	58.24773
440.392	58.85861
440.708	58.79917
441.024	58.58038
441.341	58.65837
441.657	58.64567
441.973	58.51633
442.289	58.64532
442.605	58.51188
442.921	58.75956
443.237	58.8511
443.553	58.62209
443.869	58.07193
444.184	58.61028
444.5	58.74453
444.816	58.59355
445.131	58.81987
445.446	58.74085
445.762	58.59521
446.077	58.62525
446.392	58.7696
446.707	58.51308
447.022	58.42282
447.337	58.61912
447.652	58.71829
447.967	58.73182
448.282	58.66288
448.596	58.53928
448.911	58.69323
449.225	58.70968
449.54	58.54306
449.854	58.58532
450.169	58.44946
450.483	58.37084
450.797	58.91043
451.111	58.70392
451.425	58.91929
451.739	58.76248
452.053	58.68971
452.367	58.73679
452.68	58.47045
452.994	58.63444
453.308	58.30467
453.621	58.64565
453.935	58.48391
454.248	58.64402
454.561	58.40468
454.874	58.48388
455.188	58.30491
455.501	58.37669
455.814	58.77069
456.127	58.29597
456.44	58.26255
456.752	58.42688
457.065	58.07602
457.378	58.58175
457.69	57.85828
458.003	58.0574
458.315	58.07574
458.628	58.17746
458.94	57.82754
459.252	58.2431
459.564	58.11756
459.876	58.01731
460.188	58.24175
460.5	58.24318
460.812	58.50569
461.124	58.15025
461.436	58.08909
461.747	57.71622
462.059	58.19785
462.37	58.16543
462.682	57.90622
462.993	58.26392
463.304	58.05701
463.616	58.14322
463.927	57.86108
464.238	58.42803
464.549	58.05447
464.86	58.30396
465.171	58.37951
465.481	58.41039
465.792	58.30208
466.103	58.39115
466.413	58.27275
466.724	58.11481
467.034	58.27546
467.345	57.99258
467.655	58.21024
467.965	58.01665
468.275	58.33631
468.585	58.07889
468.895	58.15212
469.205	58.1405
469.515	57.99109
469.825	58.20881
470.135	58.05752
470.444	58.29104
470.754	57.91308
471.063	58.18355
471.373	58.0732
471.682	57.93566
471.991	58.5393
472.301	58.16463
472.61	58.0848
472.919	58.27829
473.228	58.34329
473.537	58.22543
473.846	58.15164
474.155	58.0698
474.463	58.15336
474.772	58.01167
475.08	58.06108
475.389	58.32088
475.697	58.08665
476.006	57.87954
476.314	57.93509
476.622	58.18063
476.93	57.93975
477.239	57.72053
477.547	57.75921
477.855	58.07433
478.162	57.68119
478.47	58.07004
478.778	58.15768
479.086	57.59752
479.393	57.85401
479.701	58.06084
480.008	57.82927
480.315	57.85367
480.623	58.43602
480.93	57.99629
481.237	58.15148
481.544	57.98372
481.851	58.06671
482.158	58.08745
482.465	58.20801
482.772	57.98915
483.079	57.94974
483.385	58.0163
483.692	57.93351
483.998	57.57397
484.305	58.12417
484.611	57.74554
484.918	57.71134
485.224	57.99969
485.53	57.90028
485.836	58.02621
486.142	57.93251
486.448	57.64788
486.754	58.07672
487.06	57.84445
487.366	57.79638
487.671	57.83628
487.977	57.97452
488.282	57.78192
488.588	57.64791
488.893	57.72958
489.199	57.83186
489.504	57.9606
489.809	58.09102
490.114	57.94822
490.419	57.8438
490.724	57.87616
491.029	57.67778
491.334	58.15327
491.639	57.6156
491.943	57.95578
492.248	57.85801
492.553	57.85532
492.857	57.4987
493.162	57.71883
493.466	57.54951
493.77	57.81189
494.074	57.98662
494.378	58.04492
494.683	57.78784
494.987	57.99848
495.29	57.67617
495.594	58.1393
495.898	57.81796
496.202	58.15532
496.505	57.93682
496.809	58.03025
497.113	58.03662
497.416	58.23881
497.719	58.0927
498.023	58.25688
498.326	57.99577
498.629	58.03531
498.932	58.20931
499.235	58.29114
499.538	58.20967
499.841	58.40667
500.144	58.19899
500.446	58.17477
500.749	58.33629
501.052	58.15661
501.354	58.36678
501.657	58.38796
501.959	58.27289
502.261	58.47
502.564	58.46031
502.866	58.54874
503.168	58.47408
503.47	58.70182
503.772	58.73712
504.074	58.74079
504.376	58.42099
504.677	58.82137
504.979	58.69814
505.281	58.9586
505.582	59.05264
505.884	59.00307
506.185	58.83081
506.486	58.9889
506.788	59.11532
507.089	59.00222
507.39	59.14753
507.691	59.0658
507.992	59.28987
508.293	59.31448
508.594	59.31975
508.895	59.19089
509.195	59.51052
509.496	59.70101
509.797	59.7611
510.097	59.4512
510.398	59.7138
510.698	59.7322
510.998	59.63714
511.298	60.12159
511.599	60.07917
511.899	60.04567
512.199	60.12883
512.499	60.18015
512.799	59.94945
513.098	60.23269
513.398	60.31827
513.698	60.40298
513.997	60.4311
514.297	60.65783
514.596	60.47731
514.896	60.74152
515.195	60.86381
515.494	60.97349
515.794	60.82788
516.093	61.0579
516.392	61.0444
516.691	61.36944
516.99	61.40962
517.288	61.26822
517.587	61.30209
517.886	61.76031
518.185	61.88153
518.483	61.91629
518.782	62.11806
519.08	62.08161
519.378	62.0906
519.677	62.28329
519.975	62.52784
520.273	62.59443
520.571	62.51142
520.869	62.72338
521.167	62.96192
521.465	62.76471
521.763	63.04354
522.061	63.29009
522.358	63.28848
522.656	63.32883
522.953	63.34529
523.251	63.32007
523.548	63.64194
523.846	63.80342
524.143	64.06002
524.44	64.03374
524.737	64.15973
525.034	64.28498
525.331	64.5054
525.628	64.20909
525.925	64.40911
526.222	64.47441
526.518	64.52182
526.815	64.58423
527.112	64.83406
527.408	64.78819
527.705	64.76487
528.001	65.25109
528.297	65.13107
528.593	64.90634
528.89	64.87316
529.186	65.11745
529.482	65.34909
529.778	65.2292
530.074	65.31244
530.369	65.35151
530.665	65.12988
530.961	65.40843
531.256	65.23889
531.552	65.31014
531.847	65.16439
532.143	65.31444
532.438	65.25471
532.733	65.182
533.029	65.27455
533.324	65.30059
533.619	65.3947
533.914	65.14596
534.209	64.97292
534.504	65.1449
534.798	65.23557
535.093	65.20339
535.388	65.4175
535.682	65.16006
535.977	64.85851
536.271	65.01977
536.566	65.06498
536.86	64.93792
537.154	65.13883
537.448	64.77872
537.742	64.89215
538.037	64.97196
538.33	64.98246
538.624	64.95556
538.918	64.75459
539.212	64.703
539.506	64.81039
539.799	64.8174
540.093	64.88694
540.386	64.87354
540.68	64.74046
540.973	64.83267
541.266	64.97436
541.56	64.85127
541.853	64.95868
542.146	64.88535
542.439	64.89495
542.732	65.12288
543.025	64.84214
543.318	65.12968
543.61	65.10177
543.903	65.19328
544.196	65.35968
544.488	65.23959
544.781	65.39312
545.073	65.60675
545.365	65.64913
545.658	65.5495
545.95	65.34037
546.242	65.76461
546.534	65.61834
546.826	65.75324
547.118	65.69398
547.41	65.75824
547.702	65.93272
547.993	65.90943
548.285	66.05392
548.577	66.29207
548.868	66.2719
549.16	66.21725
549.451	66.40115
549.742	66.24296
550.034	66.1795
550.325	66.38121
550.616	66.46807
550.907	66.69716
551.198	66.64426
551.489	66.80146
551.78	66.44788
552.07	66.75017
552.361	66.95197
552.652	66.73595
552.942	66.95811
553.233	66.94996
553.523	66.92938
553.814	67.11469
554.104	67.25781
554.394	67.03755
554.684	66.95294
554.975	66.85555
555.265	67.09126
555.555	67.25564
555.845	67.09492
556.134	67.13412
556.424	67.18167
556.714	67.25623
557.003	67.40224
557.293	67.3698
557.583	67.54923
557.872	67.44489
558.161	67.33022
558.451	67.53945
558.74	67.30581
559.029	67.72107
559.318	67.46817
559.607	67.60987
559.896	67.58623
560.185	67.70047
560.474	67.37631
560.763	67.60618
561.051	67.5294
561.34	67.38021
561.629	67.57307
561.917	67.54786
562.205	67.30114
562.494	67.65527
562.782	67.51179
563.07	67.27286
563.359	67.58691
563.647	67.43654
563.935	67.46009
564.223	67.39727
564.51	67.61089
564.798	67.41524
565.086	67.5705
565.374	67.14013
565.661	67.34189
565.949	67.50684
566.236	67.27339
566.524	67.27949
566.811	67.00516
567.099	67.20471
567.386	67.23509
567.673	67.35023
567.96	67.176
568.247	67.50373
568.534	67.25327
568.821	67.25125
569.108	67.31848
569.394	67.05538
569.681	67.13298
569.968	67.16441
570.254	67.18278
570.541	67.24527
570.827	67.12055
571.114	67.05084
571.4	67.08842
571.686	66.9544
571.972	67.13939
572.258	66.71238
572.544	66.9068
572.83	67.15515
573.116	67.08606
573.402	66.95582
573.688	67.40064
573.973	66.99413
574.259	66.9518
574.545	66.98136
574.83	67.30238
575.116	66.90621
575.401	67.03066
575.686	67.09182
575.971	67.08276
576.257	66.98183
576.542	67.05065
576.827	67.08065
577.112	66.71191
577.397	67.03313
577.681	67.01981
