Data from Reflection__6__15-54-26-668.txt Node

Date: Wed Jul 02 15:54:26 BST 2025
User: Jamie
Spectrometer: HDX00312
Trigger mode: 0
Integration Time (sec): 6.900000E-2
Scans to average: 10
Nonlinearity correction enabled: true
Boxcar width: 0
Storing dark spectrum: false
XAxis mode: Wavelengths
Number of Pixels in Spectrum: 2068
>>>>>Begin Spectral Data<<<<<
196.211	147.8867
196.582	108.25676
196.954	108.51053
197.325	128.04841
197.696	95.91751
198.067	80.50847
198.438	82.38993
198.809	74.924
199.18	72.54602
199.551	74.50823
199.922	74.32754
200.293	73.88327
200.663	72.23086
201.034	73.73335
201.404	74.28655
201.774	71.29328
202.144	72.7539
202.515	74.03071
202.885	74.73272
203.255	74.99701
203.625	74.63815
203.994	73.71244
204.364	71.02245
204.734	70.62939
205.103	74.26388
205.473	75.30599
205.842	74.96904
206.212	73.5488
206.581	71.87623
206.95	71.45601
207.319	72.42563
207.688	72.03845
208.057	74.07299
208.426	73.70212
208.795	73.1609
209.163	72.42205
209.532	70.6968
209.9	71.67796
210.269	73.47209
210.637	71.67797
211.005	71.74862
211.374	70.9818
211.742	70.99846
212.11	69.91849
212.478	70.00126
212.846	72.96142
213.213	68.7765
213.581	70.65421
213.949	67.72511
214.316	67.12859
214.684	71.41783
215.051	67.728
215.418	67.07639
215.786	66.48877
216.153	65.70058
216.52	65.94921
216.887	64.0684
217.254	69.40389
217.62	65.37106
217.987	64.10964
218.354	64.34188
218.72	62.84919
219.087	61.24792
219.453	59.64739
219.819	57.94845
220.186	57.98895
220.552	56.05268
220.918	54.62598
221.284	54.51486
221.65	54.4461
222.016	52.46138
222.381	51.71608
222.747	50.28285
223.113	49.1835
223.478	49.69845
223.844	49.15981
224.209	47.66247
224.574	47.53163
224.939	46.26015
225.304	46.01985
225.669	44.71871
226.034	44.88673
226.399	44.83736
226.764	44.3179
227.129	44.07645
227.493	43.6163
227.858	43.71048
228.222	43.48736
228.587	43.67136
228.951	43.83063
229.315	43.20318
229.679	43.2296
230.043	42.9714
230.407	43.21769
230.771	42.61423
231.135	42.52419
231.499	42.49091
231.862	42.27564
232.226	42.65504
232.589	42.43719
232.953	42.09568
233.316	42.33725
233.679	42.27109
234.042	42.42039
234.405	42.36621
234.768	42.17629
235.131	42.38946
235.494	42.57777
235.857	42.27288
236.22	42.23122
236.582	42.37202
236.945	42.82436
237.307	42.62912
237.669	42.81924
238.032	42.787
238.394	43.08842
238.756	42.93194
239.118	43.01471
239.48	43.03532
239.842	43.21876
240.204	43.26212
240.565	43.48295
240.927	43.21566
241.288	43.44282
241.65	43.35125
242.011	43.2198
242.373	43.26074
242.734	43.20907
243.095	43.14927
243.456	43.29857
243.817	43.09832
244.178	43.06593
244.539	43.03488
244.899	43.05912
245.26	42.96167
245.621	42.97154
245.981	42.82511
246.341	42.92878
246.702	42.65072
247.062	42.40002
247.422	42.64314
247.782	42.57704
248.142	42.38675
248.502	42.32762
248.862	42.15254
249.222	42.06314
249.582	42.14098
249.941	42.00992
250.301	41.88139
250.66	41.77492
251.02	41.75479
251.379	41.47524
251.738	41.52095
252.097	41.56706
252.456	41.53953
252.815	41.33501
253.174	41.34391
253.533	41.43209
253.892	41.35861
254.25	41.12767
254.609	41.20973
254.967	41.08727
255.326	40.93088
255.684	41.03181
256.042	41.05571
256.4	40.99418
256.759	41.09786
257.117	40.85378
257.474	41.07196
257.832	41.00439
258.19	40.92726
258.548	41.08079
258.905	40.98458
259.263	41.18171
259.62	41.03441
259.978	41.15888
260.335	41.19402
260.692	41.36868
261.049	41.37897
261.406	41.25241
261.763	41.3679
262.12	41.59216
262.477	41.73755
262.834	41.88888
263.19	42.05722
263.547	41.84613
263.904	42.08485
264.26	42.1326
264.616	42.1956
264.973	42.18052
265.329	42.38299
265.685	42.38626
266.041	42.58439
266.397	42.66903
266.753	42.97686
267.108	43.00963
267.464	43.26826
267.82	43.00651
268.175	43.39643
268.531	43.52127
268.886	43.59301
269.241	43.7167
269.597	43.76518
269.952	44.02859
270.307	43.97357
270.662	44.18546
271.017	44.31392
271.371	44.61976
271.726	44.45662
272.081	44.53182
272.435	44.86832
272.79	44.74511
273.144	45.00378
273.499	44.99421
273.853	45.22376
274.207	45.26
274.561	45.28029
274.915	45.43342
275.269	45.74333
275.623	45.7958
275.977	45.89242
276.331	45.93983
276.684	45.99556
277.038	46.1973
277.391	46.17029
277.745	46.29553
278.098	46.44363
278.451	46.58268
278.804	46.53259
279.157	46.45668
279.51	46.93332
279.863	46.7353
280.216	46.93188
280.569	46.95757
280.922	47.0307
281.274	47.16146
281.627	47.23598
281.979	47.52201
282.332	47.3063
282.684	47.64902
283.036	47.5766
283.388	47.84857
283.74	47.95586
284.092	48.13876
284.444	48.05422
284.796	48.01751
285.148	48.11181
285.499	48.36468
285.851	48.37338
286.202	48.2921
286.554	48.40055
286.905	48.42315
287.257	48.56721
287.608	48.86332
287.959	48.57277
288.31	48.86559
288.661	49.18711
289.012	49.13731
289.362	49.16083
289.713	49.42119
290.064	49.48923
290.414	49.55441
290.765	49.583
291.115	49.64678
291.466	49.77336
291.816	49.89347
292.166	50.03942
292.516	50.09532
292.866	50.10875
293.216	50.10514
293.566	50.10148
293.916	50.40988
294.265	50.35011
294.615	50.482
294.964	50.38641
295.314	50.52769
295.663	50.58133
296.013	50.70426
296.362	50.59908
296.711	50.81408
297.06	50.56554
297.409	50.64522
297.758	50.66691
298.107	50.7132
298.455	50.7207
298.804	50.83057
299.153	50.7893
299.501	50.86428
299.85	50.85132
300.198	50.73066
300.546	50.81316
300.894	50.70735
301.243	50.71422
301.591	50.93281
301.939	50.79931
302.287	50.77053
302.634	50.70933
302.982	50.65484
303.33	50.86478
303.677	50.76578
304.025	50.69332
304.372	50.7901
304.72	50.74062
305.067	50.72009
305.414	50.71558
305.761	50.74057
306.108	50.72629
306.455	50.73449
306.802	50.85542
307.149	50.82914
307.495	50.6134
307.842	50.6018
308.189	50.69027
308.535	50.59531
308.882	50.72438
309.228	50.40882
309.574	50.69938
309.92	50.58501
310.266	50.62658
310.612	50.58069
310.958	50.57202
311.304	50.55045
311.65	50.53616
311.996	50.29849
312.341	50.39573
312.687	50.76677
313.032	50.48017
313.378	50.33855
313.723	50.32832
314.068	50.47619
314.413	50.12735
314.759	50.40742
315.104	50.34348
315.449	50.18558
315.793	50.22815
316.138	50.29775
316.483	50.37123
316.827	50.03794
317.172	50.10799
317.516	50.17259
317.861	50.244
318.205	50.20458
318.549	50.17074
318.894	50.09552
319.238	49.95577
319.582	50.01361
319.926	50.25239
320.269	50.07829
320.613	50.00515
320.957	49.9221
321.3	49.95208
321.644	49.85684
321.987	49.76019
322.331	49.97363
322.674	49.69531
323.017	49.81133
323.36	49.79368
323.704	49.81337
324.047	49.79901
324.389	49.81364
324.732	49.66722
325.075	49.62596
325.418	49.6583
325.76	49.50981
326.103	49.78129
326.445	49.81606
326.788	49.7272
327.13	49.62772
327.472	49.63044
327.814	49.75625
328.156	49.76167
328.498	49.77505
328.84	49.72156
329.182	49.60669
329.524	49.49422
329.866	49.42733
330.207	49.6155
330.549	49.69342
330.89	49.61822
331.231	49.62767
331.573	49.51417
331.914	49.32963
332.255	49.55573
332.596	49.463
332.937	49.62384
333.278	49.66827
333.619	49.47812
333.96	49.6233
334.3	49.60421
334.641	49.58103
334.981	49.55534
335.322	49.68666
335.662	49.57509
336.003	49.48912
336.343	49.5909
336.683	49.70308
337.023	49.62692
337.363	49.54724
337.703	49.72437
338.043	49.59045
338.382	49.6907
338.722	49.61206
339.062	49.75728
339.401	49.78521
339.741	49.84117
340.08	49.52601
340.419	49.54088
340.759	49.72256
341.098	49.81314
341.437	49.60563
341.776	49.62236
342.115	49.66111
342.454	49.60018
342.792	49.8968
343.131	49.76731
343.47	49.61406
343.808	49.82608
344.147	49.76293
344.485	49.77629
344.823	49.83265
345.162	49.97004
345.5	49.92986
345.838	49.70578
346.176	49.98097
346.514	49.93586
346.851	49.89651
347.189	49.87777
347.527	49.71672
347.865	49.9022
348.202	50.03834
348.54	49.71409
348.877	49.80791
349.214	49.74535
349.551	49.92682
349.889	49.94002
350.226	49.89085
350.563	50.07015
350.9	49.78915
351.236	49.81732
351.573	49.97716
351.91	49.90148
352.247	49.96319
352.583	49.95562
352.92	50.094
353.256	50.10964
353.592	50.00366
353.929	49.81871
354.265	49.81507
354.601	49.95091
354.937	49.79251
355.273	49.96063
355.609	49.79632
355.944	49.99867
356.28	49.73866
356.616	49.7613
356.951	49.92331
357.287	49.95229
357.622	49.8166
357.957	50.04897
358.293	50.04095
358.628	50.02779
358.963	49.86567
359.298	49.76708
359.633	50.00929
359.968	49.82981
360.303	49.78606
360.637	49.84048
360.972	49.89047
361.307	49.94085
361.641	49.9956
361.975	50.11735
362.31	49.94261
362.644	50.10221
362.978	49.93019
363.312	49.69464
363.646	49.99545
363.98	49.97746
364.314	49.72588
364.648	50.12482
364.982	49.82701
365.315	50.02051
365.649	49.9438
365.983	49.78338
366.316	49.77727
366.649	50.07943
366.983	49.71527
367.316	49.85153
367.649	49.98991
367.982	49.87383
368.315	49.72579
368.648	49.97985
368.981	49.8357
369.313	49.98744
369.646	49.97309
369.979	50.14075
370.311	49.93029
370.644	49.76632
370.976	49.75793
371.308	50.14392
371.641	49.86327
371.973	49.56945
372.305	49.59555
372.637	49.75149
372.969	49.83053
373.301	49.75377
373.632	49.78608
373.964	49.79913
374.296	49.9639
374.627	49.49533
374.959	49.60969
375.29	50.03133
375.621	49.56834
375.953	49.77341
376.284	49.6265
376.615	49.62886
376.946	49.81243
377.277	49.57199
377.608	49.69423
377.939	49.85641
378.269	49.6255
378.6	49.52688
378.931	49.74739
379.261	49.47062
379.591	49.35208
379.922	49.59579
380.252	49.36565
380.582	49.35934
380.912	49.4776
381.242	49.70192
381.572	49.41829
381.902	49.61286
382.232	49.47829
382.562	49.33217
382.891	49.26964
383.221	49.44558
383.551	49.5055
383.88	49.4845
384.209	49.32585
384.539	49.18645
384.868	49.50268
385.197	49.47742
385.526	49.46835
385.855	49.28898
386.184	49.34772
386.513	49.48789
386.842	49.27246
387.17	49.30884
387.499	49.41261
387.828	49.41113
388.156	49.25372
388.484	49.43936
388.813	49.30332
389.141	49.31543
389.469	49.32028
389.797	49.24672
390.125	49.36228
390.453	49.38913
390.781	49.18778
391.109	49.24515
391.437	49.20519
391.764	48.99163
392.092	49.17755
392.419	49.17001
392.747	49.36693
393.074	49.33416
393.401	49.10744
393.729	49.15744
394.056	49.34849
394.383	49.44305
394.71	49.16719
395.037	49.19994
395.363	49.44423
395.69	49.30177
396.017	49.27728
396.344	49.4287
396.67	49.20957
396.997	49.15854
397.323	48.99968
397.649	49.25751
397.975	49.31737
398.302	49.00701
398.628	49.08837
398.954	48.71364
399.28	49.07196
399.606	49.24569
399.931	49.26665
400.257	49.22881
400.583	49.30314
400.908	49.00146
401.234	49.04163
401.559	49.16166
401.884	49.04939
402.21	49.2742
402.535	49.1632
402.86	49.15157
403.185	49.35903
403.51	49.32628
403.835	49.09956
404.16	49.22735
404.485	49.36004
404.809	49.06845
405.134	49.024
405.458	48.96071
405.783	49.2656
406.107	49.23645
406.432	49.38392
406.756	49.19996
407.08	49.34223
407.404	49.39635
407.728	49.4306
408.052	49.67322
408.376	49.43455
408.7	49.48531
409.023	49.3175
409.347	49.46463
409.671	49.42751
409.994	49.60614
410.317	49.53136
410.641	49.5707
410.964	49.68668
411.287	49.69254
411.61	49.45592
411.933	49.84896
412.256	49.39065
412.579	49.56637
412.902	49.60784
413.225	49.49756
413.548	49.78131
413.87	49.58533
414.193	49.77681
414.515	49.74186
414.838	49.65214
415.16	49.79226
415.482	49.83445
415.804	49.95062
416.126	49.81337
416.448	50.00322
416.77	49.78049
417.092	50.18049
417.414	50.04635
417.736	50.03054
418.057	49.89696
418.379	49.9887
418.701	50.1504
419.022	50.01371
419.343	49.82504
419.665	50.18749
419.986	50.20326
420.307	50.02097
420.628	50.17458
420.949	49.97393
421.27	50.20283
421.591	50.2148
421.912	50.15473
422.232	50.10387
422.553	49.84329
422.873	50.3109
423.194	50.04328
423.514	50.58762
423.835	50.38088
424.155	50.30517
424.475	50.21938
424.795	50.53155
425.115	50.5726
425.435	50.68093
425.755	50.67623
426.075	50.58304
426.395	50.29826
426.714	50.50158
427.034	50.65545
427.354	50.607
427.673	51.01481
427.992	50.61834
428.312	50.70728
428.631	50.73011
428.95	50.59195
429.269	50.77556
429.588	50.8914
429.907	50.63177
430.226	50.77569
430.545	50.7682
430.864	50.74787
431.182	50.87265
431.501	50.67645
431.819	50.60533
432.138	50.80098
432.456	50.90444
432.774	51.07321
433.093	50.95885
433.411	51.23982
433.729	51.25149
434.047	51.28636
434.365	50.93796
434.683	51.82452
435	51.32729
435.318	51.40952
435.636	51.15284
435.953	50.90295
436.271	51.37476
436.588	51.05759
436.906	51.39014
437.223	51.20654
437.54	51.49467
437.857	51.16427
438.174	51.60843
438.491	51.24655
438.808	51.39769
439.125	51.29321
439.442	51.45598
439.758	51.75305
440.075	51.38158
440.392	51.27278
440.708	51.62714
441.024	51.35282
441.341	51.95831
441.657	51.51187
441.973	51.39567
442.289	51.86744
442.605	51.44999
442.921	51.67231
443.237	51.5426
443.553	51.74079
443.869	51.08781
444.184	51.60433
444.5	51.21696
444.816	51.33991
445.131	51.57389
445.446	51.58465
445.762	51.64964
446.077	51.74921
446.392	51.41137
446.707	51.61454
447.022	51.78175
447.337	51.59387
447.652	51.63175
447.967	51.90135
448.282	51.84167
448.596	51.7917
448.911	52.07064
449.225	51.62133
449.54	51.54069
449.854	51.55528
450.169	51.40134
450.483	51.44981
450.797	51.77891
451.111	52.01616
451.425	52.07889
451.739	52.16772
452.053	51.72989
452.367	51.88196
452.68	51.57224
452.994	52.27062
453.308	51.6032
453.621	51.64056
453.935	51.55231
454.248	51.97648
454.561	51.51268
454.874	51.68907
455.188	51.69564
455.501	51.86605
455.814	51.89428
456.127	51.69839
456.44	51.06938
456.752	51.68621
457.065	51.5946
457.378	51.62415
457.69	51.26055
458.003	51.24796
458.315	51.51799
458.628	51.60713
458.94	51.3027
459.252	51.19529
459.564	51.33442
459.876	51.29701
460.188	51.62682
460.5	51.46815
460.812	51.41004
461.124	51.36165
461.436	51.25181
461.747	51.42486
462.059	51.41736
462.37	51.23758
462.682	51.16882
462.993	51.40346
463.304	51.56064
463.616	51.12075
463.927	51.30272
464.238	51.3736
464.549	51.17937
464.86	51.25061
465.171	51.46932
465.481	51.34894
465.792	51.18058
466.103	51.17187
466.413	51.45608
466.724	51.09269
467.034	50.87033
467.345	51.32822
467.655	51.30794
467.965	51.04816
468.275	51.18322
468.585	51.25604
468.895	51.38031
469.205	51.1386
469.515	51.07931
469.825	51.09079
470.135	50.93598
470.444	51.44818
470.754	50.88871
471.063	51.21467
471.373	51.08581
471.682	51.17118
471.991	51.09908
472.301	51.41004
472.61	51.38194
472.919	51.26959
473.228	51.15735
473.537	50.92938
473.846	51.35534
474.155	51.02466
474.463	51.27021
474.772	50.92695
475.08	51.16813
475.389	51.08865
475.697	50.90347
476.006	51.38594
476.314	50.59926
476.622	51.18564
476.93	51.11385
477.239	51.04437
477.547	50.94183
477.855	51.29218
478.162	50.7875
478.47	51.16932
478.778	51.087
479.086	50.75744
479.393	51.04001
479.701	51.01574
480.008	50.8395
480.315	50.88357
480.623	51.23657
480.93	50.84467
481.237	51.04067
481.544	50.81629
481.851	50.95181
482.158	50.9852
482.465	51.16578
482.772	51.01549
483.079	50.69596
483.385	51.08523
483.692	51.00692
483.998	50.56246
484.305	51.12357
484.611	50.66941
484.918	50.93404
485.224	50.94523
485.53	50.99581
485.836	50.75747
486.142	50.87293
486.448	50.59687
486.754	50.77911
487.06	50.70488
487.366	50.87391
487.671	50.83698
487.977	50.86467
488.282	50.80015
488.588	50.78285
488.893	50.69158
489.199	50.86736
489.504	50.70496
489.809	50.80343
490.114	50.8091
490.419	50.99501
490.724	50.89992
491.029	50.94664
491.334	50.77814
491.639	50.89239
491.943	50.76162
492.248	50.80358
492.553	51.1002
492.857	50.93439
493.162	50.59875
493.466	50.61435
493.77	50.73448
494.074	50.85702
494.378	50.72554
494.683	50.51164
494.987	50.65077
495.29	50.79895
495.594	50.88572
495.898	50.67595
496.202	51.15023
496.505	50.72439
496.809	50.80006
497.113	50.73753
497.416	50.93693
497.719	50.80974
498.023	50.84497
498.326	51.00098
498.629	51.02172
498.932	51.0432
499.235	50.87742
499.538	50.74298
499.841	50.76326
500.144	50.94255
500.446	51.05561
500.749	50.94923
501.052	51.01325
501.354	51.2296
501.657	51.27311
501.959	50.934
502.261	50.91021
502.564	50.879
502.866	50.98943
503.168	51.06312
503.47	50.86
503.772	50.93752
504.074	50.81158
504.376	50.89191
504.677	50.94162
504.979	51.23094
505.281	51.30198
505.582	51.23835
505.884	51.14172
506.185	51.36665
506.486	51.58216
506.788	51.40025
507.089	51.31336
507.39	51.25333
507.691	51.41262
507.992	51.50396
508.293	51.59036
508.594	51.59595
508.895	51.47133
509.195	51.58546
509.496	51.56799
509.797	51.83892
510.097	51.64658
510.398	51.64381
510.698	51.595
510.998	51.6441
511.298	51.73932
511.599	51.69522
511.899	52.01314
512.199	52.01099
512.499	52.01575
512.799	52.03544
513.098	52.05397
513.398	51.89024
513.698	52.17479
513.997	52.07479
514.297	52.29361
514.596	52.36824
514.896	52.45099
515.195	52.39347
515.494	52.61771
515.794	52.60622
516.093	52.53269
516.392	52.60758
516.691	52.97376
516.99	53.10075
517.288	53.00461
517.587	52.80087
517.886	53.1804
518.185	53.3595
518.483	53.27848
518.782	53.4804
519.08	53.02882
519.378	53.45171
519.677	53.53963
519.975	53.81485
520.273	53.61095
520.571	53.97345
520.869	53.94007
521.167	54.10149
521.465	54.10282
521.763	54.02487
522.061	54.11101
522.358	54.08535
522.656	54.23117
522.953	54.34097
523.251	54.11417
523.548	54.44926
523.846	54.4884
524.143	54.65318
524.44	54.77923
524.737	54.58096
525.034	54.96376
525.331	54.78389
525.628	54.84988
525.925	54.93369
526.222	55.04751
526.518	54.92411
526.815	54.88071
527.112	55.26994
527.408	55.2358
527.705	55.26479
528.001	55.41409
528.297	55.37233
528.593	55.39653
528.89	55.17975
529.186	55.26509
529.482	55.52261
529.778	55.58956
530.074	55.47729
530.369	55.69608
530.665	55.37745
530.961	55.26818
531.256	55.40936
531.552	55.41741
531.847	55.49353
532.143	55.49281
532.438	55.46445
532.733	55.35998
533.029	55.46922
533.324	55.48016
533.619	55.49343
533.914	55.43521
534.209	55.54334
534.504	55.33701
534.798	55.53961
535.093	55.1337
535.388	55.34269
535.682	55.35287
535.977	55.05123
536.271	55.34234
536.566	55.10034
536.86	55.33112
537.154	55.37348
537.448	55.0949
537.742	55.15052
538.037	55.16598
538.33	55.16594
538.624	55.13948
538.918	55.1809
539.212	55.10449
539.506	55.33597
539.799	55.24052
540.093	54.99231
540.386	54.95246
540.68	54.87313
540.973	54.88294
541.266	54.86626
541.56	54.91485
541.853	55.1734
542.146	54.92132
542.439	55.04071
542.732	55.24272
543.025	54.9836
543.318	55.11477
543.61	55.0516
543.903	55.04049
544.196	55.17833
544.488	55.1708
544.781	55.31514
545.073	55.00957
545.365	55.30626
545.658	55.3744
545.95	55.34909
546.242	55.40042
546.534	55.53531
546.826	55.51735
547.118	55.56777
547.41	55.48161
547.702	55.48734
547.993	55.47395
548.285	55.65985
548.577	55.62911
548.868	55.66969
549.16	55.77825
549.451	56.00225
549.742	55.8445
550.034	55.76014
550.325	55.71994
550.616	55.68583
550.907	55.96444
551.198	55.74816
551.489	55.90495
551.78	55.77484
552.07	56.01873
552.361	56.07845
552.652	55.89163
552.942	56.06101
553.233	56.08024
553.523	56.04116
553.814	56.1774
554.104	56.0838
554.394	56.13225
554.684	56.04821
554.975	56.24786
555.265	56.24544
555.555	56.1496
555.845	56.01642
556.134	56.19619
556.424	56.02173
556.714	56.15855
557.003	56.22106
557.293	56.14119
557.583	56.09789
557.872	56.15982
558.161	55.94134
558.451	56.19788
558.74	56.18766
559.029	56.21455
559.318	56.1922
559.607	56.00586
559.896	56.27134
560.185	56.10347
560.474	56.01517
560.763	55.89023
561.051	56.04424
561.34	56.02965
561.629	56.21729
561.917	55.98302
562.205	55.98942
562.494	55.88285
562.782	55.97912
563.07	56.13032
563.359	56.07981
563.647	56.00268
563.935	55.98091
564.223	55.89309
564.51	55.84591
564.798	55.89525
565.086	55.91012
565.374	55.71428
565.661	55.90278
565.949	55.88175
566.236	55.38995
566.524	55.41955
566.811	55.35181
567.099	55.39961
567.386	55.41086
567.673	55.50956
567.96	55.39305
568.247	55.52927
568.534	55.53254
568.821	55.66759
569.108	55.44395
569.394	55.34944
569.681	55.31837
569.968	55.38006
570.254	55.34811
570.541	55.32904
570.827	55.23609
571.114	55.32416
571.4	55.25626
571.686	54.95127
571.972	55.05876
572.258	54.99544
572.544	54.94739
572.83	54.99583
573.116	54.78738
573.402	55.22988
573.688	55.10441
573.973	55.0266
574.259	54.81291
574.545	54.86585
574.83	54.82495
575.116	54.92753
575.401	54.71531
575.686	54.90397
575.971	54.77152
576.257	55.02121
576.542	54.69774
576.827	54.64458
577.112	54.57132
577.397	54.54457
577.681	54.45098
577.966	54.5544
