Data from Reflection__8__15-55-29-457.txt Node

Date: Wed Jul 02 15:55:29 BST 2025
User: Jamie
Spectrometer: HDX00312
Trigger mode: 0
Integration Time (sec): 6.900000E-2
Scans to average: 10
Nonlinearity correction enabled: true
Boxcar width: 0
Storing dark spectrum: false
XAxis mode: Wavelengths
Number of Pixels in Spectrum: 2068
>>>>>Begin Spectral Data<<<<<
196.211	169.01306
196.582	109.17417
196.954	112.76579
197.325	95.122
197.696	68.89744
198.067	52.85218
198.438	52.7074
198.809	46.33109
199.18	40.72924
199.551	41.07826
199.922	43.4093
200.293	41.79736
200.663	42.89237
201.034	42.25421
201.404	40.57608
201.774	41.80694
202.144	41.52596
202.515	43.77233
202.885	45.16092
203.255	45.766
203.625	43.76045
203.994	41.82893
204.364	42.40995
204.734	41.46997
205.103	44.26944
205.473	44.49842
205.842	42.45606
206.212	42.66501
206.581	42.22249
206.95	42.26553
207.319	44.34582
207.688	42.17585
208.057	41.41094
208.426	42.49552
208.795	40.90442
209.163	41.15822
209.532	41.49545
209.9	41.86275
210.269	41.97887
210.637	43.28102
211.005	40.81502
211.374	42.37227
211.742	39.51308
212.11	37.77776
212.478	38.17806
212.846	42.09158
213.213	40.9435
213.581	40.67529
213.949	38.78788
214.316	40.08044
214.684	40.59268
215.051	39.7399
215.418	38.8933
215.786	36.51715
216.153	37.30442
216.52	36.7034
216.887	36.35279
217.254	38.71219
217.62	36.17462
217.987	34.69933
218.354	36.52885
218.72	35.06115
219.087	34.16549
219.453	30.82369
219.819	31.51261
220.186	31.0932
220.552	30.51616
220.918	28.00881
221.284	27.38019
221.65	27.08885
222.016	25.45864
222.381	25.3217
222.747	24.44672
223.113	23.99143
223.478	23.47529
223.844	22.80446
224.209	22.17231
224.574	21.45732
224.939	20.65503
225.304	20.16385
225.669	19.49047
226.034	19.67258
226.399	19.3112
226.764	18.52831
227.129	18.25278
227.493	17.93779
227.858	17.75152
228.222	17.69395
228.587	17.24278
228.951	17.1253
229.315	16.81706
229.679	16.8972
230.043	16.64388
230.407	16.24048
230.771	16.242
231.135	15.89631
231.499	15.86716
231.862	15.90069
232.226	15.72305
232.589	15.53277
232.953	15.44855
233.316	15.31498
233.679	15.23767
234.042	15.04084
234.405	15.00629
234.768	14.89303
235.131	14.72623
235.494	14.79069
235.857	14.77336
236.22	14.747
236.582	14.42394
236.945	14.54506
237.307	14.45136
237.669	14.39379
238.032	14.46369
238.394	14.39833
238.756	14.36675
239.118	14.24418
239.48	14.1322
239.842	14.16546
240.204	14.01337
240.565	14.06027
240.927	13.99239
241.288	13.90524
241.65	13.84598
242.011	13.82235
242.373	13.83807
242.734	13.67657
243.095	13.61843
243.456	13.5521
243.817	13.53289
244.178	13.51751
244.539	13.5244
244.899	13.47438
245.26	13.41106
245.621	13.34909
245.981	13.32573
246.341	13.16568
246.702	13.25204
247.062	13.21973
247.422	13.16078
247.782	12.98956
248.142	12.97461
248.502	12.99241
248.862	12.96436
249.222	12.96984
249.582	12.82866
249.941	12.84466
250.301	12.82317
250.66	12.77069
251.02	12.76802
251.379	12.64537
251.738	12.63404
252.097	12.62512
252.456	12.55972
252.815	12.54149
253.174	12.47309
253.533	12.54008
253.892	12.49484
254.25	12.4961
254.609	12.33537
254.967	12.37262
255.326	12.2671
255.684	12.28873
256.042	12.26285
256.4	12.2088
256.759	12.17719
257.117	12.13162
257.474	12.19365
257.832	12.19784
258.19	12.09654
258.548	12.03302
258.905	12.10987
259.263	12.05035
259.62	11.96851
259.978	12.05902
260.335	12.02826
260.692	12.0001
261.049	11.97125
261.406	11.9461
261.763	11.91464
262.12	12.00062
262.477	11.98171
262.834	11.92152
263.19	11.89198
263.547	11.83924
263.904	11.84514
264.26	11.86437
264.616	11.90378
264.973	11.74057
265.329	11.82688
265.685	11.77921
266.041	11.76221
266.397	11.7051
266.753	11.77107
267.108	11.76067
267.464	11.82632
267.82	11.80319
268.175	11.73824
268.531	11.74304
268.886	11.69163
269.241	11.6899
269.597	11.66224
269.952	11.64026
270.307	11.65134
270.662	11.63904
271.017	11.65087
271.371	11.5947
271.726	11.5478
272.081	11.59091
272.435	11.63198
272.79	11.56934
273.144	11.57649
273.499	11.48601
273.853	11.541
274.207	11.46451
274.561	11.4951
274.915	11.49752
275.269	11.50087
275.623	11.50782
275.977	11.49482
276.331	11.55054
276.684	11.46372
277.038	11.43922
277.391	11.34143
277.745	11.36924
278.098	11.35378
278.451	11.4999
278.804	11.35245
279.157	11.26947
279.51	11.32579
279.863	11.23287
280.216	11.20414
280.569	11.32317
280.922	11.33377
281.274	11.27349
281.627	11.2665
281.979	11.28042
282.332	11.20991
282.684	11.30428
283.036	11.16267
283.388	11.21008
283.74	11.1998
284.092	11.16624
284.444	11.14417
284.796	11.06189
285.148	11.0598
285.499	11.08886
285.851	11.07603
286.202	10.97184
286.554	10.95437
286.905	11.01307
287.257	10.98346
287.608	10.91328
287.959	10.90402
288.31	10.93496
288.661	10.96694
289.012	10.94272
289.362	10.95846
289.713	10.93672
290.064	10.88668
290.414	10.87895
290.765	10.88564
291.115	10.8044
291.466	10.78134
291.816	10.77551
292.166	10.85424
292.516	10.7749
292.866	10.75165
293.216	10.7288
293.566	10.68986
293.916	10.75586
294.265	10.68743
294.615	10.69829
294.964	10.61882
295.314	10.68658
295.663	10.67219
296.013	10.63696
296.362	10.55151
296.711	10.62268
297.06	10.52872
297.409	10.53364
297.758	10.52012
298.107	10.58091
298.455	10.53201
298.804	10.54681
299.153	10.56267
299.501	10.52486
299.85	10.52831
300.198	10.53849
300.546	10.60924
300.894	10.55897
301.243	10.53201
301.591	10.4826
301.939	10.54388
302.287	10.53468
302.634	10.5528
302.982	10.47446
303.33	10.45816
303.677	10.48569
304.025	10.5067
304.372	10.48461
304.72	10.47529
305.067	10.48569
305.414	10.43194
305.761	10.46289
306.108	10.41731
306.455	10.42383
306.802	10.44442
307.149	10.42543
307.495	10.40499
307.842	10.39981
308.189	10.32713
308.535	10.33688
308.882	10.33834
309.228	10.30698
309.574	10.35217
309.92	10.39967
310.266	10.32091
310.612	10.36835
310.958	10.36464
311.304	10.32633
311.65	10.28536
311.996	10.28941
312.341	10.29886
312.687	10.24217
313.032	10.24802
313.378	10.24112
313.723	10.27781
314.068	10.25326
314.413	10.20902
314.759	10.18327
315.104	10.30611
315.449	10.11556
315.793	10.22744
316.138	10.18306
316.483	10.17582
316.827	10.16813
317.172	10.13892
317.516	10.19787
317.861	10.1367
318.205	10.12758
318.549	10.22425
318.894	10.09293
319.238	10.15184
319.582	10.12771
319.926	10.11727
320.269	10.07841
320.613	10.00076
320.957	10.09576
321.3	10.03255
321.644	9.99144
321.987	10.07387
322.331	10.06376
322.674	10.02657
323.017	10.03274
323.36	9.95297
323.704	10.03936
324.047	9.9938
324.389	9.95377
324.732	9.93643
325.075	9.9567
325.418	9.94793
325.76	9.91761
326.103	9.98548
326.445	9.87568
326.788	9.89312
327.13	9.88427
327.472	9.87973
327.814	9.90579
328.156	9.85868
328.498	9.90548
328.84	9.88671
329.182	9.89103
329.524	9.8091
329.866	9.84294
330.207	9.82351
330.549	9.76494
330.89	9.82231
331.231	9.72998
331.573	9.81633
331.914	9.72551
332.255	9.7259
332.596	9.81598
332.937	9.78378
333.278	9.73393
333.619	9.75545
333.96	9.82786
334.3	9.75702
334.641	9.77485
334.981	9.73354
335.322	9.78056
335.662	9.75048
336.003	9.69911
336.343	9.72098
336.683	9.7152
337.023	9.70562
337.363	9.66689
337.703	9.71254
338.043	9.72043
338.382	9.72765
338.722	9.74382
339.062	9.62373
339.401	9.60401
339.741	9.6988
340.08	9.57207
340.419	9.71502
340.759	9.63052
341.098	9.68392
341.437	9.64386
341.776	9.59163
342.115	9.53454
342.454	9.61309
342.792	9.65403
343.131	9.64552
343.47	9.55505
343.808	9.65083
344.147	9.58957
344.485	9.68706
344.823	9.6368
345.162	9.68666
345.5	9.64873
345.838	9.62696
346.176	9.6781
346.514	9.70418
346.851	9.67905
347.189	9.66624
347.527	9.62062
347.865	9.63246
348.202	9.59413
348.54	9.60996
348.877	9.64781
349.214	9.59037
349.551	9.56995
349.889	9.65057
350.226	9.65689
350.563	9.60726
350.9	9.58003
351.236	9.59296
351.573	9.64315
351.91	9.61101
352.247	9.64427
352.583	9.65723
352.92	9.61041
353.256	9.60801
353.592	9.5951
353.929	9.63645
354.265	9.60737
354.601	9.55178
354.937	9.54152
355.273	9.56863
355.609	9.5191
355.944	9.49099
356.28	9.52399
356.616	9.57682
356.951	9.5596
357.287	9.60791
357.622	9.54611
357.957	9.59948
358.293	9.61039
358.628	9.54086
358.963	9.59916
359.298	9.61437
359.633	9.65076
359.968	9.5862
360.303	9.4978
360.637	9.6041
360.972	9.5894
361.307	9.57398
361.641	9.44057
361.975	9.57355
362.31	9.6614
362.644	9.58274
362.978	9.55464
363.312	9.61904
363.646	9.49916
363.98	9.48778
364.314	9.64253
364.648	9.46589
364.982	9.41656
365.315	9.58662
365.649	9.51265
365.983	9.52142
366.316	9.58049
366.649	9.54929
366.983	9.54631
367.316	9.51658
367.649	9.53726
367.982	9.53981
368.315	9.56502
368.648	9.52817
368.981	9.30208
369.313	9.54784
369.646	9.45431
369.979	9.58354
370.311	9.39206
370.644	9.5555
370.976	9.60735
371.308	9.52832
371.641	9.46719
371.973	9.48542
372.305	9.60626
372.637	9.46946
372.969	9.51499
373.301	9.51395
373.632	9.49913
373.964	9.5291
374.296	9.47108
374.627	9.45055
374.959	9.46813
375.29	9.54645
375.621	9.38218
375.953	9.57171
376.284	9.57292
376.615	9.47218
376.946	9.46015
377.277	9.50881
377.608	9.41859
377.939	9.54338
378.269	9.46705
378.6	9.5269
378.931	9.43042
379.261	9.471
379.591	9.58754
379.922	9.55157
380.252	9.54176
380.582	9.48437
380.912	9.48894
381.242	9.43364
381.572	9.55244
381.902	9.48063
382.232	9.5445
382.562	9.47994
382.891	9.49669
383.221	9.44765
383.551	9.53884
383.88	9.43231
384.209	9.52248
384.539	9.51811
384.868	9.53802
385.197	9.43096
385.526	9.42707
385.855	9.53948
386.184	9.54109
386.513	9.50455
386.842	9.43071
387.17	9.47567
387.499	9.42037
387.828	9.45655
388.156	9.51676
388.484	9.52283
388.813	9.50908
389.141	9.46131
389.469	9.49219
389.797	9.43342
390.125	9.54339
390.453	9.50692
390.781	9.46747
391.109	9.52262
391.437	9.47105
391.764	9.46495
392.092	9.4575
392.419	9.42048
392.747	9.51157
393.074	9.52074
393.401	9.44768
393.729	9.48647
394.056	9.4644
394.383	9.55256
394.71	9.45547
395.037	9.66846
395.363	9.52919
395.69	9.47845
396.017	9.62514
396.344	9.40853
396.67	9.57842
396.997	9.58054
397.323	9.55838
397.649	9.54389
397.975	9.57137
398.302	9.58708
398.628	9.59888
398.954	9.51395
399.28	9.58256
399.606	9.70325
399.931	9.71309
400.257	9.68164
400.583	9.65031
400.908	9.665
401.234	9.69131
401.559	9.73605
401.884	9.77654
402.21	9.76192
402.535	9.69436
402.86	9.87159
403.185	9.82104
403.51	9.9429
403.835	9.72383
404.16	9.80973
404.485	9.84376
404.809	9.77691
405.134	9.82052
405.458	9.78086
405.783	9.8875
406.107	9.81008
406.432	9.88872
406.756	9.88674
407.08	9.95234
407.404	9.93094
407.728	9.95997
408.052	9.99957
408.376	9.97908
408.7	9.97229
409.023	9.92534
409.347	9.97089
409.671	9.92428
409.994	10.08042
410.317	10.1267
410.641	10.16909
410.964	10.17272
411.287	10.22333
411.61	10.26538
411.933	10.13227
412.256	10.15559
412.579	10.18014
412.902	10.15909
413.225	10.2964
413.548	10.3106
413.87	10.27753
414.193	10.33844
414.515	10.34055
414.838	10.37279
415.16	10.31154
415.482	10.30161
415.804	10.42199
416.126	10.41106
416.448	10.48971
416.77	10.48271
417.092	10.61166
417.414	10.55649
417.736	10.61234
418.057	10.54463
418.379	10.6474
418.701	10.70921
419.022	10.74038
419.343	10.68235
419.665	10.62373
419.986	10.74566
420.307	10.87717
420.628	10.83634
420.949	10.9403
421.27	10.91663
421.591	10.88347
421.912	10.91016
422.232	10.83845
422.553	10.82067
422.873	11.13143
423.194	11.09983
423.514	11.18974
423.835	11.18065
424.155	11.13357
424.475	11.0865
424.795	11.22677
425.115	11.3393
425.435	11.24459
425.755	11.36083
426.075	11.42006
426.395	11.32649
426.714	11.3332
427.034	11.54126
427.354	11.58278
427.673	11.44253
427.992	11.49669
428.312	11.52597
428.631	11.57657
428.95	11.6238
429.269	11.53599
429.588	11.39021
429.907	11.37664
430.226	11.64375
430.545	11.68483
430.864	11.62557
431.182	11.62673
431.501	11.61562
431.819	11.73816
432.138	11.69056
432.456	11.74778
432.774	11.78671
433.093	12.02548
433.411	11.98244
433.729	11.9257
434.047	12.01305
434.365	12.17662
434.683	12.17272
435	12.12459
435.318	12.10535
435.636	12.04877
435.953	12.18354
436.271	12.41611
436.588	12.19818
436.906	12.26624
437.223	12.22554
437.54	12.29444
437.857	12.34083
438.174	12.25249
438.491	12.39846
438.808	12.47352
439.125	12.45349
439.442	12.47993
439.758	12.50474
440.075	12.53296
440.392	12.60186
440.708	12.52255
441.024	12.4183
441.341	12.6255
441.657	12.45434
441.973	12.62235
442.289	12.6839
442.605	12.52777
442.921	12.65669
443.237	12.62201
443.553	12.58817
443.869	12.612
444.184	12.66727
444.5	12.62011
444.816	12.81156
445.131	12.82338
445.446	12.83721
445.762	12.68085
446.077	12.70966
446.392	12.77569
446.707	12.79336
447.022	12.83958
447.337	12.95836
447.652	12.79199
447.967	12.72358
448.282	12.85856
448.596	12.94031
448.911	12.88805
449.225	12.71521
449.54	12.82509
449.854	12.83379
450.169	12.89961
450.483	12.76522
450.797	12.91736
451.111	13.03342
451.425	13.19438
451.739	12.99313
452.053	12.91041
452.367	13.09601
452.68	12.82544
452.994	13.11036
453.308	12.92813
453.621	12.92247
453.935	12.88949
454.248	12.99009
454.561	12.8064
454.874	12.96373
455.188	13.01449
455.501	13.02228
455.814	12.91711
456.127	12.89763
456.44	12.90159
456.752	12.76778
457.065	12.74751
457.378	12.8131
457.69	12.82098
458.003	12.79531
458.315	12.79549
458.628	12.93773
458.94	12.77838
459.252	12.672
459.564	12.88911
459.876	12.71808
460.188	12.91591
460.5	12.91568
460.812	12.93543
461.124	12.74789
461.436	12.89357
461.747	12.78747
462.059	12.71187
462.37	12.80785
462.682	12.85665
462.993	12.86695
463.304	12.87467
463.616	12.76082
463.927	12.79402
464.238	12.71168
464.549	12.77092
464.86	12.72639
465.171	12.71972
465.481	12.86798
465.792	12.80129
466.103	12.738
466.413	12.90428
466.724	12.86479
467.034	12.75909
467.345	12.79129
467.655	12.72863
467.965	12.72512
468.275	12.6732
468.585	12.67528
468.895	12.78059
469.205	12.65901
469.515	12.68239
469.825	12.61262
470.135	12.8247
470.444	12.77724
470.754	12.76616
471.063	12.7163
471.373	12.80702
471.682	12.6549
471.991	12.74724
472.301	12.79023
472.61	12.78809
472.919	12.7713
473.228	12.73276
473.537	12.61732
473.846	12.72235
474.155	12.76847
474.463	12.87302
474.772	12.65817
475.08	12.67576
475.389	12.77132
475.697	12.74486
476.006	12.655
476.314	12.68668
476.622	12.77695
476.93	12.63488
477.239	12.71798
477.547	12.6154
477.855	12.71997
478.162	12.63071
478.47	12.6486
478.778	12.69287
479.086	12.73074
479.393	12.79409
479.701	12.75526
480.008	12.74894
480.315	12.69877
480.623	12.67702
480.93	12.68909
481.237	12.72305
481.544	12.66022
481.851	12.72834
482.158	12.72777
482.465	12.87445
482.772	12.75395
483.079	12.69064
483.385	12.65709
483.692	12.80572
483.998	12.62565
484.305	12.68279
484.611	12.64524
484.918	12.68194
485.224	12.81094
485.53	12.71391
485.836	12.68837
486.142	12.8352
486.448	12.78711
486.754	12.68319
487.06	12.8404
487.366	12.76058
487.671	12.78351
487.977	12.83376
488.282	12.63856
488.588	12.81604
488.893	12.7846
489.199	12.88462
489.504	12.79841
489.809	12.76441
490.114	12.8362
490.419	12.772
490.724	12.76966
491.029	12.84205
491.334	12.76938
491.639	12.66281
491.943	12.82345
492.248	12.95904
492.553	12.82587
492.857	12.84763
493.162	12.78885
493.466	12.86419
493.77	12.93624
494.074	12.7734
494.378	12.83249
494.683	13.00597
494.987	12.89244
495.29	12.91277
495.594	13.06084
495.898	12.7669
496.202	13.02462
496.505	13.07329
496.809	13.13767
497.113	13.03135
497.416	13.09583
497.719	13.14278
498.023	13.12103
498.326	13.06736
498.629	13.19184
498.932	13.24665
499.235	13.14166
499.538	13.16456
499.841	13.16476
500.144	13.19805
500.446	13.22744
500.749	13.22289
501.052	13.29581
501.354	13.31668
501.657	13.41589
501.959	13.46033
502.261	13.33992
502.564	13.36061
502.866	13.38428
503.168	13.40744
503.47	13.49749
503.772	13.48471
504.074	13.44784
504.376	13.49261
504.677	13.46785
504.979	13.48405
505.281	13.72413
505.582	13.67052
505.884	13.76503
506.185	13.76466
506.486	13.86533
506.788	13.82355
507.089	13.85228
507.39	13.88782
507.691	14.00421
507.992	14.02962
508.293	14.05422
508.594	13.9794
508.895	14.1374
509.195	14.08843
509.496	14.23648
509.797	14.28733
510.097	14.16807
510.398	14.3962
510.698	14.48046
510.998	14.33993
511.298	14.55628
511.599	14.59239
511.899	14.74592
512.199	14.72281
512.499	14.73494
512.799	14.90111
513.098	14.89817
513.398	14.93006
513.698	15.06748
513.997	15.06799
514.297	15.24722
514.596	15.16294
514.896	15.34059
515.195	15.42467
515.494	15.47483
515.794	15.48605
516.093	15.68622
516.392	15.63516
516.691	15.92071
516.99	15.98973
517.288	15.95483
517.587	16.03338
517.886	16.2138
518.185	16.2816
518.483	16.32786
518.782	16.42376
519.08	16.46051
519.378	16.6671
519.677	16.66995
519.975	16.7694
520.273	16.92524
520.571	16.92801
520.869	17.13088
521.167	17.16719
521.465	17.26014
521.763	17.41471
522.061	17.43582
522.358	17.54537
522.656	17.77028
522.953	17.7868
523.251	17.68502
523.548	17.78525
523.846	17.93609
524.143	18.16598
524.44	18.25002
524.737	18.28273
525.034	18.26964
525.331	18.33625
525.628	18.422
525.925	18.46725
526.222	18.56628
526.518	18.59539
526.815	18.74935
527.112	18.85136
527.408	18.82785
527.705	18.99212
528.001	18.96791
528.297	18.99439
528.593	18.95981
528.89	18.93945
529.186	19.09757
529.482	19.19051
529.778	19.21024
530.074	19.28734
530.369	19.28814
530.665	19.2274
530.961	19.29996
531.256	19.13507
531.552	19.24813
531.847	19.33434
532.143	19.23353
532.438	19.27582
532.733	19.20224
533.029	19.30987
533.324	19.32713
533.619	19.19505
533.914	19.22337
534.209	19.23839
534.504	19.15698
534.798	19.16674
535.093	19.16604
535.388	19.13835
535.682	19.17871
535.977	19.03215
536.271	19.1546
536.566	19.14653
536.86	19.01284
537.154	19.07248
537.448	19.13733
537.742	19.09564
538.037	19.03798
538.33	18.99829
538.624	19.06417
538.918	18.97371
539.212	18.89781
539.506	19.16666
539.799	18.88093
540.093	18.8233
540.386	18.8559
540.68	18.79521
540.973	19.02024
541.266	18.97571
541.56	18.92953
541.853	19.1927
542.146	18.96671
542.439	19.08191
542.732	19.16548
543.025	19.0456
543.318	19.08691
543.61	19.15565
543.903	19.16804
544.196	19.22141
544.488	19.28057
544.781	19.29542
545.073	19.18688
545.365	19.33722
545.658	19.39577
545.95	19.41942
546.242	19.55394
546.534	19.70512
546.826	19.62703
547.118	19.74231
547.41	19.7327
547.702	19.85893
547.993	19.86546
548.285	19.82987
548.577	19.93093
548.868	19.95258
549.16	19.95637
549.451	20.1127
549.742	20.1304
550.034	20.23771
550.325	20.24065
550.616	20.193
550.907	20.37286
551.198	20.42072
551.489	20.39274
551.78	20.46968
552.07	20.51795
552.361	20.38537
552.652	20.53535
552.942	20.54058
553.233	20.6482
553.523	20.68481
553.814	20.62879
554.104	20.73554
554.394	20.84998
554.684	20.82295
554.975	20.79672
555.265	20.8819
555.555	20.88525
555.845	20.9156
556.134	20.87051
556.424	20.86168
556.714	20.94942
557.003	20.96731
557.293	20.97481
557.583	21.018
557.872	20.99662
558.161	20.85552
558.451	20.96375
558.74	20.83874
559.029	20.95967
559.318	20.99182
559.607	20.97925
559.896	20.99094
560.185	20.92931
560.474	21.00966
560.763	20.95573
561.051	21.01091
561.34	20.87824
561.629	20.88044
561.917	20.91866
562.205	20.83496
562.494	20.80002
562.782	20.83277
563.07	20.81667
563.359	20.84439
563.647	20.89843
563.935	20.82221
564.223	20.69629
564.51	20.84329
564.798	20.75576
565.086	20.84165
565.374	20.66496
565.661	20.56697
565.949	20.59158
566.236	20.58116
566.524	20.55011
566.811	20.49632
567.099	20.52793
567.386	20.46995
567.673	20.51716
567.96	20.47476
568.247	20.3907
568.534	20.42992
568.821	20.3923
569.108	20.45455
569.394	20.3398
569.681	20.28552
569.968	20.24388
570.254	20.31331
570.541	20.11074
570.827	20.27798
571.114	20.26706
571.4	20.1864
571.686	20.11699
571.972	19.98797
572.258	20.03596
572.544	20.13181
572.83	19.92793
573.116	19.99498
573.402	19.92147
573.688	20.08977
573.973	19.93306
574.259	19.91009
574.545	19.93974
574.83	19.87205
575.116	19.76677
575.401	19.7854
575.686	19.78249
575.971	19.76387
576.257	19.77929
576.542	19.75043
576.827	19.69194
577.112	19.71344
577.397	19.6679
577.681	19.63994
577.966	19.6089
578.251	19.51142
578.536	19.51584
578.82	19.6185
579.105	19.43726
579.389	19.5352
579.673	19.45203
579.958	19.40219
580.242	19.4356
580.526	19.40413
580.81	19.35109
581.094	19.33354
581.378	19.34199
581.662	19.27452
581.946	19.38922
582.23	19.23985
582.513	19.30003
