Data from Reflection__20__16-36-31-304.txt Node

Date: Wed Jul 02 16:36:31 BST 2025
User: Jamie
Spectrometer: HDX00312
Trigger mode: 0
Integration Time (sec): 6.900000E-2
Scans to average: 10
Nonlinearity correction enabled: true
Boxcar width: 0
Storing dark spectrum: false
XAxis mode: Wavelengths
Number of Pixels in Spectrum: 2068
>>>>>Begin Spectral Data<<<<<
196.211	143.03738
196.582	115.62478
196.954	136.76428
197.325	119.99973
197.696	87.30349
198.067	89.95657
198.438	80.61417
198.809	75.03607
199.18	70.61305
199.551	70.67202
199.922	75.69541
200.293	70.06062
200.663	71.46795
201.034	72.14199
201.404	70.70558
201.774	73.0598
202.144	73.21519
202.515	75.69517
202.885	75.39174
203.255	70.22123
203.625	75.19659
203.994	71.40862
204.364	72.17933
204.734	72.31023
205.103	75.59946
205.473	73.82477
205.842	69.46687
206.212	72.13765
206.581	71.84768
206.95	69.99988
207.319	73.58064
207.688	73.37174
208.057	69.18782
208.426	69.35421
208.795	72.69389
209.163	68.83344
209.532	74.22372
209.9	68.66786
210.269	68.87801
210.637	71.278
211.005	69.46649
211.374	71.91818
211.742	69.51309
212.11	70.0958
212.478	71.15409
212.846	71.86596
213.213	68.86585
213.581	69.15777
213.949	67.10901
214.316	67.73823
214.684	66.72988
215.051	68.88705
215.418	65.64368
215.786	67.60695
216.153	65.78196
216.52	64.21928
216.887	65.22923
217.254	64.22249
217.62	66.66686
217.987	63.7724
218.354	63.57617
218.72	64.35431
219.087	59.91246
219.453	63.2153
219.819	58.25925
220.186	57.85107
220.552	59.30877
220.918	55.99919
221.284	54.98693
221.65	55.87348
222.016	55.14795
222.381	53.1118
222.747	50.69954
223.113	50.82348
223.478	50.80502
223.844	48.61796
224.209	49.40026
224.574	49.52564
224.939	47.52192
225.304	47.32615
225.669	46.70756
226.034	46.64754
226.399	46.07405
226.764	46.66677
227.129	46.13914
227.493	45.28333
227.858	45.14919
228.222	45.31983
228.587	45.11325
228.951	45.1411
229.315	44.39919
229.679	44.2018
230.043	44.42871
230.407	44.00499
230.771	43.89623
231.135	43.75633
231.499	43.33202
231.862	43.22022
232.226	43.42338
232.589	43.58168
232.953	43.36821
233.316	43.25614
233.679	43.20963
234.042	43.10362
234.405	43.13523
234.768	42.9682
235.131	42.952
235.494	43.45868
235.857	43.29497
236.22	43.00396
236.582	43.07164
236.945	43.11108
237.307	43.28685
237.669	43.25328
238.032	42.90103
238.394	42.92965
238.756	42.96769
239.118	43.16519
239.48	42.94975
239.842	43.12069
240.204	43.23593
240.565	43.21543
240.927	43.25236
241.288	43.09547
241.65	43.26276
242.011	43.3467
242.373	43.28389
242.734	43.34402
243.095	43.19567
243.456	43.27705
243.817	43.0059
244.178	43.05465
244.539	43.05406
244.899	43.05285
245.26	43.05515
245.621	43.02588
245.981	42.97831
246.341	42.7806
246.702	42.7943
247.062	42.79686
247.422	42.53996
247.782	42.5605
248.142	42.53951
248.502	42.33571
248.862	42.30853
249.222	42.25215
249.582	42.12775
249.941	42.06074
250.301	41.91767
250.66	41.85415
251.02	41.7288
251.379	42.02908
251.738	41.7093
252.097	41.67118
252.456	41.79061
252.815	41.68456
253.174	41.71114
253.533	41.56541
253.892	41.51296
254.25	41.62913
254.609	41.52906
254.967	41.43711
255.326	41.32604
255.684	41.22936
256.042	41.26354
256.4	41.37546
256.759	41.14613
257.117	40.97075
257.474	41.10564
257.832	40.98414
258.19	41.10742
258.548	41.11993
258.905	41.09603
259.263	40.98986
259.62	40.9038
259.978	41.09576
260.335	41.10399
260.692	41.06416
261.049	41.21603
261.406	41.11774
261.763	41.18002
262.12	41.23597
262.477	41.13675
262.834	41.41018
263.19	41.53216
263.547	41.4928
263.904	41.42818
264.26	41.48485
264.616	41.40599
264.973	41.56409
265.329	41.51942
265.685	41.60364
266.041	41.78999
266.397	41.63491
266.753	41.57994
267.108	41.86955
267.464	41.85697
267.82	41.96755
268.175	42.23983
268.531	42.03747
268.886	42.17116
269.241	42.20033
269.597	42.29366
269.952	42.20842
270.307	42.36116
270.662	42.13503
271.017	42.39917
271.371	42.49564
271.726	42.26483
272.081	42.1065
272.435	42.48524
272.79	42.44239
273.144	42.57037
273.499	42.57308
273.853	42.71232
274.207	42.84623
274.561	42.67266
274.915	42.91279
275.269	42.73371
275.623	42.84555
275.977	43.09255
276.331	43.05588
276.684	43.14147
277.038	43.3372
277.391	43.25296
277.745	43.03559
278.098	43.12151
278.451	43.13506
278.804	43.29994
279.157	43.32888
279.51	43.27286
279.863	43.23565
280.216	43.33726
280.569	43.27677
280.922	43.50895
281.274	43.26321
281.627	43.25619
281.979	43.43987
282.332	43.47735
282.684	43.57736
283.036	43.54082
283.388	43.57886
283.74	43.5764
284.092	43.52944
284.444	43.42327
284.796	43.6489
285.148	43.53529
285.499	43.54683
285.851	43.46072
286.202	43.46582
286.554	43.6931
286.905	43.46468
287.257	43.62305
287.608	43.32527
287.959	43.40638
288.31	43.49466
288.661	43.35857
289.012	43.57002
289.362	43.5338
289.713	43.52831
290.064	43.48443
290.414	43.72384
290.765	43.6799
291.115	43.77839
291.466	43.73916
291.816	43.672
292.166	43.6091
292.516	43.80833
292.866	43.66667
293.216	43.66251
293.566	43.53959
293.916	43.66377
294.265	43.66382
294.615	43.60335
294.964	43.61996
295.314	43.66501
295.663	43.44724
296.013	43.65621
296.362	43.57561
296.711	43.446
297.06	43.52805
297.409	43.45026
297.758	43.55209
298.107	43.44072
298.455	43.4738
298.804	43.47734
299.153	43.37253
299.501	43.45832
299.85	43.46578
300.198	43.48493
300.546	43.55945
300.894	43.40328
301.243	43.6029
301.591	43.44846
301.939	43.44023
302.287	43.41817
302.634	43.58631
302.982	43.45715
303.33	43.51878
303.677	43.46081
304.025	43.37925
304.372	43.41788
304.72	43.59435
305.067	43.4797
305.414	43.28409
305.761	43.22318
306.108	43.21799
306.455	43.14998
306.802	43.18652
307.149	43.18807
307.495	43.09571
307.842	42.99584
308.189	43.07575
308.535	42.93041
308.882	43.09185
309.228	43.16936
309.574	43.09276
309.92	43.05994
310.266	43.07137
310.612	42.8905
310.958	43.07683
311.304	42.85571
311.65	43.03546
311.996	42.82089
312.341	42.75302
312.687	42.83931
313.032	42.71525
313.378	43.04905
313.723	42.84188
314.068	42.79036
314.413	42.78269
314.759	42.69575
315.104	42.6796
315.449	42.54414
315.793	42.59841
316.138	42.70607
316.483	42.50289
316.827	42.54123
317.172	42.48189
317.516	42.67371
317.861	42.50947
318.205	42.56014
318.549	42.78118
318.894	42.58433
319.238	42.74515
319.582	42.68399
319.926	42.6133
320.269	42.73115
320.613	42.58059
320.957	42.51578
321.3	42.69794
321.644	42.53631
321.987	42.47152
322.331	42.44145
322.674	42.41563
323.017	42.53672
323.36	42.45597
323.704	42.50348
324.047	42.55661
324.389	42.81644
324.732	42.6272
325.075	42.50194
325.418	42.7609
325.76	42.76155
326.103	42.68823
326.445	42.71551
326.788	42.73614
327.13	42.95317
327.472	42.86908
327.814	42.94085
328.156	42.96283
328.498	43.13533
328.84	43.14862
329.182	43.09924
329.524	43.09534
329.866	43.00394
330.207	42.98644
330.549	42.98802
330.89	43.06519
331.231	43.12795
331.573	42.98973
331.914	43.11222
332.255	43.24508
332.596	43.18899
332.937	43.19263
333.278	43.17633
333.619	43.31285
333.96	43.17553
334.3	43.27239
334.641	43.43287
334.981	43.35854
335.322	43.39204
335.662	43.39974
336.003	43.36221
336.343	43.61932
336.683	43.60388
337.023	43.54552
337.363	43.76435
337.703	43.6841
338.043	43.75664
338.382	43.84859
338.722	43.61082
339.062	43.69756
339.401	43.77695
339.741	43.88143
340.08	43.67444
340.419	43.94103
340.759	43.73309
341.098	43.84259
341.437	43.8192
341.776	43.803
342.115	44.01789
342.454	44.01722
342.792	43.94886
343.131	43.9119
343.47	44.10152
343.808	44.037
344.147	44.22694
344.485	44.02813
344.823	44.31628
345.162	44.37079
345.5	44.29394
345.838	44.03243
346.176	44.22452
346.514	44.08899
346.851	44.10713
347.189	44.24466
347.527	44.49294
347.865	44.37416
348.202	44.2372
348.54	44.29623
348.877	44.38835
349.214	44.48733
349.551	44.33938
349.889	44.62548
350.226	44.53365
350.563	44.49362
350.9	44.51268
351.236	44.36822
351.573	44.52385
351.91	44.4312
352.247	44.21348
352.583	44.3703
352.92	44.44581
353.256	44.36718
353.592	44.37852
353.929	44.30056
354.265	44.39697
354.601	44.40649
354.937	44.38204
355.273	44.3482
355.609	44.52376
355.944	44.43162
356.28	44.54308
356.616	44.61056
356.951	44.51956
357.287	44.51287
357.622	44.69534
357.957	44.49208
358.293	44.62027
358.628	44.51847
358.963	44.81493
359.298	44.51219
359.633	44.75826
359.968	44.88113
360.303	44.78658
360.637	44.4197
360.972	44.84475
361.307	44.81016
361.641	44.90753
361.975	44.77978
362.31	44.48564
362.644	44.61601
362.978	44.95731
363.312	44.75244
363.646	44.61044
363.98	44.755
364.314	44.77569
364.648	44.77223
364.982	44.73202
365.315	44.89154
365.649	44.58701
365.983	44.86049
366.316	44.80212
366.649	44.69221
366.983	44.89467
367.316	44.73949
367.649	44.79062
367.982	44.76297
368.315	44.7988
368.648	44.77169
368.981	44.86649
369.313	44.60823
369.646	44.70075
369.979	45.02534
370.311	44.90816
370.644	44.83645
370.976	44.94123
371.308	44.7738
371.641	44.79503
371.973	45.01016
372.305	44.74729
372.637	44.60971
372.969	44.56486
373.301	44.70566
373.632	44.62456
373.964	44.71862
374.296	44.82289
374.627	44.62525
374.959	44.64616
375.29	44.77237
375.621	44.5949
375.953	44.67394
376.284	44.77847
376.615	44.57916
376.946	44.59259
377.277	44.68285
377.608	44.69572
377.939	44.63509
378.269	44.67583
378.6	44.90806
378.931	44.91235
379.261	44.7763
379.591	44.51087
379.922	44.89497
380.252	44.57292
380.582	44.64689
380.912	44.72865
381.242	44.74446
381.572	44.79729
381.902	44.64424
382.232	44.56531
382.562	44.72981
382.891	44.59502
383.221	44.68526
383.551	44.66808
383.88	44.71773
384.209	44.80182
384.539	44.61098
384.868	44.71327
385.197	44.45121
385.526	44.61626
385.855	44.65969
386.184	44.57118
386.513	44.56846
386.842	44.53598
387.17	44.4994
387.499	44.49201
387.828	44.56855
388.156	44.64203
388.484	44.63079
388.813	44.44487
389.141	44.602
389.469	44.45588
389.797	44.63302
390.125	44.32279
390.453	44.5275
390.781	44.65032
391.109	44.55065
391.437	44.56255
391.764	44.67577
392.092	44.49948
392.419	44.48416
392.747	44.2924
393.074	44.41942
393.401	44.20468
393.729	44.59929
394.056	44.31062
394.383	44.36422
394.71	44.34831
395.037	44.61216
395.363	44.33138
395.69	44.5583
396.017	44.6557
396.344	44.42544
396.67	44.60522
396.997	44.33103
397.323	44.18296
397.649	44.46457
397.975	44.34573
398.302	44.27277
398.628	44.28185
398.954	44.28717
399.28	44.35834
399.606	44.44986
399.931	44.43297
400.257	44.13
400.583	44.50484
400.908	44.46129
401.234	44.45737
401.559	44.47527
401.884	44.55677
402.21	44.50372
402.535	44.83117
402.86	45.02445
403.185	44.80647
403.51	44.62527
403.835	44.52237
404.16	44.73847
404.485	44.51129
404.809	44.66656
405.134	44.69913
405.458	44.67491
405.783	44.62725
406.107	44.63251
406.432	45.04422
406.756	44.6131
407.08	44.66653
407.404	44.76424
407.728	45.01369
408.052	44.83932
408.376	44.90862
408.7	45.12931
409.023	45.19438
409.347	44.89893
409.671	44.7797
409.994	44.95473
410.317	45.0024
410.641	44.83232
410.964	44.90506
411.287	44.88636
411.61	45.05491
411.933	44.96649
412.256	44.88062
412.579	44.98556
412.902	44.70791
413.225	45.05286
413.548	44.88481
413.87	44.91695
414.193	45.09794
414.515	45.03941
414.838	44.91251
415.16	44.90821
415.482	44.85156
415.804	45.0468
416.126	44.96726
416.448	45.10974
416.77	45.16267
417.092	45.06064
417.414	45.2881
417.736	45.10818
418.057	45.2685
418.379	45.1872
418.701	45.01571
419.022	45.37034
419.343	45.32847
419.665	44.94816
419.986	45.43391
420.307	45.3978
420.628	45.59333
420.949	45.58686
421.27	45.32098
421.591	45.47952
421.912	45.69275
422.232	45.52044
422.553	45.51937
422.873	45.59869
423.194	45.76365
423.514	45.55469
423.835	45.79079
424.155	45.97248
424.475	45.94879
424.795	45.82856
425.115	46.01983
425.435	46.25151
425.755	46.00676
426.075	46.15887
426.395	46.06224
426.714	46.36689
427.034	46.04501
427.354	46.47995
427.673	46.12457
427.992	46.40515
428.312	46.38416
428.631	46.45627
428.95	46.35269
429.269	46.24402
429.588	46.45112
429.907	45.92965
430.226	46.28083
430.545	46.79673
430.864	46.56527
431.182	46.45474
431.501	46.65144
431.819	46.78261
432.138	46.46035
432.456	46.47374
432.774	46.27825
433.093	47.07731
433.411	46.84953
433.729	46.8682
434.047	47.38393
434.365	47.44669
434.683	47.5319
435	47.46098
435.318	47.30303
435.636	47.4606
435.953	47.30056
436.271	46.47973
436.588	46.44241
436.906	46.53953
437.223	47.05358
437.54	47.03942
437.857	47.41834
438.174	47.44545
438.491	47.38001
438.808	48.02369
439.125	47.51658
439.442	47.67707
439.758	48.10903
440.075	47.55662
440.392	47.74388
440.708	47.78644
441.024	47.75721
441.341	47.86656
441.657	47.86767
441.973	47.55964
442.289	47.94461
442.605	48.03344
442.921	47.63537
443.237	47.80879
443.553	47.80332
443.869	47.97033
444.184	47.95117
444.5	48.00171
444.816	48.17728
445.131	48.1049
445.446	48.32202
445.762	48.33334
446.077	48.1861
446.392	48.30338
446.707	48.33357
447.022	48.0987
447.337	48.74405
447.652	48.37506
447.967	48.54863
448.282	48.56191
448.596	48.66843
448.911	48.2773
449.225	48.43136
449.54	48.15415
449.854	49.0583
450.169	48.74765
450.483	48.62121
450.797	48.49378
451.111	48.49607
451.425	48.22935
451.739	48.67187
452.053	48.62626
452.367	48.55717
452.68	48.87303
452.994	48.88194
453.308	48.35769
453.621	48.7659
453.935	48.66821
454.248	48.69148
454.561	48.7989
454.874	48.6294
455.188	48.64748
455.501	48.84936
455.814	48.4539
456.127	48.79929
456.44	48.7165
456.752	48.56398
457.065	48.66289
457.378	48.51433
457.69	48.35285
458.003	48.75254
458.315	48.18259
458.628	48.69397
458.94	48.38091
459.252	48.43151
459.564	48.45775
459.876	48.14553
460.188	48.42185
460.5	48.18411
460.812	48.36187
461.124	48.72309
461.436	48.4132
461.747	48.29789
462.059	48.31128
462.37	48.04079
462.682	48.2942
462.993	48.13114
463.304	47.927
463.616	48.51034
463.927	48.28753
464.238	48.1089
464.549	48.52256
464.86	48.49711
465.171	48.28373
465.481	48.1336
465.792	48.17128
466.103	48.08829
466.413	48.11551
466.724	48.0274
467.034	48.22066
467.345	47.8561
467.655	48.16409
467.965	48.37954
468.275	48.21056
468.585	48.09768
468.895	48.34687
469.205	47.92856
469.515	48.12485
469.825	47.89089
470.135	48.08644
470.444	47.92031
470.754	48.08883
471.063	47.77301
471.373	47.71835
471.682	48.24448
471.991	47.99098
472.301	48.14292
472.61	48.06895
472.919	48.02745
473.228	47.88165
473.537	48.15077
473.846	47.77439
474.155	48.03471
474.463	48.09246
474.772	48.1075
475.08	47.99144
475.389	47.87345
475.697	48.0981
476.006	47.98253
476.314	48.09149
476.622	47.99407
476.93	48.16135
477.239	48.06
477.547	48.1254
477.855	47.99801
478.162	48.01165
478.47	48.05308
478.778	47.85607
479.086	48.00828
479.393	48.03817
479.701	47.89003
480.008	48.15228
480.315	47.93689
480.623	48.13852
480.93	47.87342
481.237	47.65835
481.544	47.87714
481.851	48.24296
482.158	47.82154
482.465	47.67762
482.772	48.08508
483.079	47.75545
483.385	47.7691
483.692	47.90129
483.998	47.76755
484.305	47.9157
484.611	47.9486
484.918	47.77866
485.224	47.95167
485.53	47.58019
485.836	47.34498
486.142	47.52728
486.448	47.63585
486.754	47.62331
487.06	47.75974
487.366	48.00967
487.671	47.51513
487.977	47.87465
488.282	47.47
488.588	47.69936
488.893	47.69022
489.199	47.64962
489.504	47.90379
489.809	47.82471
490.114	47.57669
490.419	47.71143
490.724	47.66635
491.029	47.71694
491.334	47.62014
491.639	47.78095
491.943	47.65555
492.248	47.85604
492.553	47.62967
492.857	47.73705
493.162	47.70916
493.466	47.75729
493.77	47.89027
494.074	47.70042
494.378	48.00932
494.683	47.77651
494.987	47.71291
495.29	48.07595
495.594	47.81461
495.898	48.19668
496.202	47.88383
496.505	47.76328
496.809	47.96948
497.113	47.96942
497.416	48.03854
497.719	47.84876
498.023	48.11206
498.326	48.21667
498.629	48.55644
498.932	48.23914
499.235	47.96247
499.538	48.39944
499.841	48.01329
500.144	48.16012
500.446	48.21316
500.749	48.0785
501.052	48.32299
501.354	47.86815
501.657	47.99313
501.959	48.28098
502.261	48.20504
502.564	48.19748
502.866	48.43224
503.168	48.51613
503.47	48.2172
503.772	48.33268
504.074	48.49461
504.376	48.64314
504.677	48.64556
504.979	48.49073
505.281	48.65734
505.582	48.45033
505.884	48.57897
506.185	48.69858
506.486	48.70023
506.788	48.71902
507.089	48.67646
507.39	48.83197
507.691	48.86788
507.992	48.78656
508.293	49.00402
508.594	49.09461
508.895	49.12462
509.195	49.36164
509.496	49.15892
509.797	49.32249
510.097	49.48063
510.398	49.37555
510.698	49.27626
510.998	49.47412
511.298	49.58963
511.599	49.62673
511.899	49.95335
512.199	49.70652
512.499	49.72852
512.799	49.77498
513.098	49.73777
513.398	50.00486
513.698	49.79058
513.997	50.15967
514.297	50.25454
514.596	50.11087
514.896	50.4593
515.195	50.337
515.494	50.48863
515.794	50.60646
516.093	50.56717
516.392	50.78066
516.691	50.53516
516.99	50.5987
517.288	50.99464
517.587	50.83526
517.886	51.03928
518.185	51.18514
518.483	51.06816
518.782	51.2318
519.08	51.30001
519.378	51.67735
519.677	51.50926
519.975	51.79052
520.273	51.80106
520.571	51.94408
520.869	51.93011
521.167	51.79439
521.465	52.04405
521.763	52.14854
522.061	52.1753
522.358	52.26013
522.656	52.36468
522.953	52.5476
523.251	52.72458
523.548	52.71581
523.846	52.86059
524.143	52.72239
524.44	52.84116
524.737	53.12645
525.034	53.02112
525.331	53.32564
525.628	53.23788
525.925	53.25414
526.222	53.60961
526.518	53.23183
526.815	53.42403
527.112	53.49138
527.408	53.49291
527.705	53.63205
528.001	53.78754
528.297	53.65237
528.593	53.59667
528.89	53.57878
529.186	53.59995
529.482	53.61675
529.778	53.72093
530.074	53.61971
530.369	53.5074
530.665	53.61028
530.961	53.62675
531.256	53.76223
531.552	53.65178
531.847	53.67383
532.143	53.76455
532.438	53.59291
532.733	53.71012
533.029	53.74872
533.324	53.56143
533.619	53.5464
533.914	53.79941
534.209	53.70321
534.504	53.58012
534.798	53.45591
535.093	53.51848
535.388	53.54121
535.682	53.42486
535.977	53.18686
536.271	53.37695
536.566	53.19522
536.86	53.31708
537.154	53.21493
537.448	53.08388
537.742	53.35283
538.037	53.21137
538.33	53.30062
538.624	53.21626
538.918	53.08033
539.212	53.41895
539.506	53.13409
539.799	53.23225
540.093	53.27989
540.386	53.16552
540.68	53.27614
540.973	53.2836
541.266	53.45658
541.56	53.12474
541.853	53.23837
542.146	53.35702
542.439	53.39976
542.732	53.67329
543.025	53.40908
543.318	53.69415
543.61	53.37675
543.903	53.30809
544.196	53.48632
544.488	53.39498
544.781	53.29256
545.073	53.26947
545.365	53.54606
545.658	53.44952
545.95	53.67044
546.242	53.49607
546.534	53.66362
546.826	53.46468
547.118	54.01998
547.41	53.66436
547.702	53.76565
547.993	54.05846
548.285	53.95501
548.577	54.05346
548.868	53.85998
549.16	54.08252
549.451	54.21479
549.742	54.04179
550.034	54.15967
550.325	54.33616
550.616	54.52349
550.907	54.36855
551.198	54.34168
551.489	54.39484
551.78	54.70695
552.07	54.64348
552.361	54.59676
552.652	54.5594
552.942	54.56376
553.233	54.41276
553.523	54.46778
553.814	54.51688
554.104	54.83889
554.394	54.80374
554.684	54.79608
554.975	54.50344
555.265	54.90212
555.555	54.81941
555.845	54.81929
556.134	54.8652
556.424	54.70456
556.714	54.6239
557.003	54.82912
557.293	54.73207
557.583	54.74392
557.872	54.77454
558.161	54.88391
558.451	54.73765
558.74	54.85613
559.029	54.79409
559.318	54.72117
559.607	54.79441
559.896	54.94482
560.185	54.95525
560.474	54.71256
560.763	54.52515
561.051	54.79352
561.34	54.96901
561.629	54.58578
561.917	54.6331
562.205	54.62833
562.494	54.60956
562.782	54.80692
563.07	54.70056
563.359	54.61541
563.647	54.80606
563.935	54.64839
564.223	54.87087
564.51	54.62481
564.798	54.5142
565.086	54.74055
565.374	54.58256
565.661	54.35689
565.949	54.34102
566.236	54.45351
566.524	54.27191
566.811	54.0683
567.099	54.41223
567.386	54.52268
567.673	54.48891
567.96	54.36812
568.247	54.21046
568.534	54.39019
568.821	54.38494
569.108	54.12262
569.394	54.16154
569.681	54.27189
569.968	53.99171
570.254	54.34586
570.541	54.0731
570.827	54.17506
571.114	53.89828
571.4	54.02882
571.686	53.97638
571.972	53.81721
572.258	53.79771
572.544	53.82665
572.83	54.13677
573.116	53.69038
573.402	53.73922
573.688	53.75629
573.973	53.74445
574.259	53.80165
574.545	53.73289
574.83	53.63429
575.116	53.61165
575.401	53.59007
575.686	53.70752
575.971	53.73827
576.257	53.61982
576.542	53.72177
576.827	53.69993
577.112	53.68652
577.397	53.64634
577.681	53.62665
