Data from Reflection__6__09-43-57-563.txt Node

Date: Wed Jul 02 09:43:57 BST 2025
User: Jamie
Spectrometer: HDX00312
Trigger mode: 0
Integration Time (sec): 1.070000E-1
Scans to average: 10
Nonlinearity correction enabled: true
Boxcar width: 0
Storing dark spectrum: false
XAxis mode: Wavelengths
Number of Pixels in Spectrum: 2068
>>>>>Begin Spectral Data<<<<<
196.211	471.42402
196.582	209.08996
196.954	177.192
197.325	236.66544
197.696	124.02511
198.067	115.33904
198.438	90.71775
198.809	68.35613
199.18	59.5399
199.551	62.24412
199.922	57.85454
200.293	60.8695
200.663	62.25235
201.034	60.38214
201.404	58.10496
201.774	59.96678
202.144	57.9814
202.515	57.79246
202.885	58.91394
203.255	60.87664
203.625	62.95499
203.994	62.44903
204.364	59.00723
204.734	62.40624
205.103	59.10748
205.473	60.36255
205.842	57.36315
206.212	58.26888
206.581	55.94929
206.95	58.76268
207.319	56.18074
207.688	56.31822
208.057	59.88772
208.426	55.95855
208.795	57.55773
209.163	60.10653
209.532	58.39651
209.9	55.77682
210.269	53.43075
210.637	55.88429
211.005	53.02544
211.374	55.1761
211.742	52.58055
212.11	53.13059
212.478	54.78067
212.846	52.11304
213.213	53.59969
213.581	50.19164
213.949	49.39508
214.316	50.04115
214.684	47.99431
215.051	50.08679
215.418	46.23192
215.786	46.26659
216.153	47.39768
216.52	45.71172
216.887	42.1132
217.254	45.01801
217.62	44.33135
217.987	42.06556
218.354	39.20347
218.72	36.79491
219.087	38.37324
219.453	34.66353
219.819	32.77377
220.186	29.85023
220.552	30.35056
220.918	28.95623
221.284	26.55481
221.65	25.08027
222.016	22.89393
222.381	22.09269
222.747	20.96284
223.113	18.80266
223.478	18.04077
223.844	16.84378
224.209	15.87449
224.574	15.03472
224.939	14.5997
225.304	13.23389
225.669	13.13736
226.034	12.39381
226.399	12.1974
226.764	11.72861
227.129	11.19627
227.493	11.06848
227.858	10.557
228.222	10.33145
228.587	10.11302
228.951	9.91883
229.315	9.65753
229.679	9.39302
230.043	9.07468
230.407	9.03315
230.771	8.91503
231.135	8.79556
231.499	8.60693
231.862	8.57577
232.226	8.54253
232.589	8.40647
232.953	8.26999
233.316	8.17814
233.679	8.10792
234.042	7.99043
234.405	7.95133
234.768	7.89997
235.131	7.87879
235.494	7.7969
235.857	7.73219
236.22	7.61329
236.582	7.60988
236.945	7.57237
237.307	7.54114
237.669	7.45883
238.032	7.46426
238.394	7.40721
238.756	7.35589
239.118	7.30303
239.48	7.29459
239.842	7.23811
240.204	7.16872
240.565	7.13782
240.927	7.21771
241.288	7.10164
241.65	7.07874
242.011	6.99339
242.373	7.02311
242.734	7.00896
243.095	6.98527
243.456	7.01577
243.817	6.97293
244.178	6.92922
244.539	6.91217
244.899	6.89115
245.26	6.87217
245.621	6.89245
245.981	6.85146
246.341	6.84785
246.702	6.8201
247.062	6.78015
247.422	6.75702
247.782	6.7396
248.142	6.79918
248.502	6.78181
248.862	6.76908
249.222	6.6979
249.582	6.67936
249.941	6.68847
250.301	6.66144
250.66	6.62361
251.02	6.64401
251.379	6.65779
251.738	6.56921
252.097	6.59017
252.456	6.61309
252.815	6.61085
253.174	6.59122
253.533	6.58328
253.892	6.60347
254.25	6.5516
254.609	6.57854
254.967	6.57802
255.326	6.55703
255.684	6.52307
256.042	6.56869
256.4	6.53969
256.759	6.471
257.117	6.51107
257.474	6.52994
257.832	6.56103
258.19	6.53838
258.548	6.53346
258.905	6.42692
259.263	6.4771
259.62	6.4927
259.978	6.45373
260.335	6.52985
260.692	6.48906
261.049	6.5076
261.406	6.47685
261.763	6.478
262.12	6.46274
262.477	6.46907
262.834	6.49128
263.19	6.49318
263.547	6.47464
263.904	6.49789
264.26	6.49988
264.616	6.49216
264.973	6.48165
265.329	6.51861
265.685	6.48084
266.041	6.5553
266.397	6.48228
266.753	6.53382
267.108	6.54606
267.464	6.50628
267.82	6.58008
268.175	6.61275
268.531	6.56096
268.886	6.52007
269.241	6.56071
269.597	6.51282
269.952	6.54192
270.307	6.59425
270.662	6.51949
271.017	6.57725
271.371	6.56888
271.726	6.55122
272.081	6.52645
272.435	6.48893
272.79	6.59832
273.144	6.54516
273.499	6.54884
273.853	6.58119
274.207	6.57129
274.561	6.56164
274.915	6.61335
275.269	6.56611
275.623	6.5489
275.977	6.55571
276.331	6.58497
276.684	6.58466
277.038	6.5276
277.391	6.60393
277.745	6.55381
278.098	6.57437
278.451	6.55803
278.804	6.58837
279.157	6.57735
279.51	6.58155
279.863	6.55962
280.216	6.60205
280.569	6.55548
280.922	6.56754
281.274	6.62861
281.627	6.56632
281.979	6.49623
282.332	6.58301
282.684	6.49272
283.036	6.57377
283.388	6.51305
283.74	6.60953
284.092	6.575
284.444	6.53478
284.796	6.54134
285.148	6.55749
285.499	6.53355
285.851	6.59579
286.202	6.57849
286.554	6.5701
286.905	6.6183
287.257	6.57543
287.608	6.5482
287.959	6.52841
288.31	6.51733
288.661	6.56595
289.012	6.54549
289.362	6.60214
289.713	6.53776
290.064	6.52702
290.414	6.49785
290.765	6.54064
291.115	6.54748
291.466	6.55823
291.816	6.5507
292.166	6.50497
292.516	6.53668
292.866	6.55499
293.216	6.51773
293.566	6.52695
293.916	6.54773
294.265	6.55446
294.615	6.55874
294.964	6.55068
295.314	6.55744
295.663	6.58785
296.013	6.57536
296.362	6.58744
296.711	6.56181
297.06	6.5975
297.409	6.57698
297.758	6.6046
298.107	6.60188
298.455	6.58329
298.804	6.57303
299.153	6.59265
299.501	6.57885
299.85	6.59603
300.198	6.61593
300.546	6.63482
300.894	6.65072
301.243	6.60778
301.591	6.6226
301.939	6.67179
302.287	6.65558
302.634	6.66311
302.982	6.68178
303.33	6.64667
303.677	6.67138
304.025	6.63093
304.372	6.64609
304.72	6.64374
305.067	6.70804
305.414	6.69415
305.761	6.68356
306.108	6.71254
306.455	6.67227
306.802	6.69717
307.149	6.68597
307.495	6.71682
307.842	6.6734
308.189	6.67322
308.535	6.73423
308.882	6.7031
309.228	6.70909
309.574	6.71024
309.92	6.71922
310.266	6.70115
310.612	6.73107
310.958	6.67165
311.304	6.71201
311.65	6.66046
311.996	6.71329
312.341	6.72156
312.687	6.73253
313.032	6.69841
313.378	6.71685
313.723	6.71143
314.068	6.71811
314.413	6.68084
314.759	6.71839
315.104	6.71212
315.449	6.71175
315.793	6.70295
316.138	6.74872
316.483	6.73838
316.827	6.69789
317.172	6.76612
317.516	6.70676
317.861	6.77376
318.205	6.76365
318.549	6.75558
318.894	6.74014
319.238	6.72574
319.582	6.79459
319.926	6.79338
320.269	6.75079
320.613	6.76578
320.957	6.77981
321.3	6.76871
321.644	6.80783
321.987	6.75518
322.331	6.81386
322.674	6.79508
323.017	6.81348
323.36	6.83558
323.704	6.77496
324.047	6.78237
324.389	6.84443
324.732	6.78594
325.075	6.80592
325.418	6.82451
325.76	6.77724
326.103	6.83457
326.445	6.83747
326.788	6.85088
327.13	6.83774
327.472	6.85117
327.814	6.82024
328.156	6.82063
328.498	6.84684
328.84	6.80509
329.182	6.81951
329.524	6.83877
329.866	6.80878
330.207	6.82108
330.549	6.86517
330.89	6.8229
331.231	6.82967
331.573	6.8014
331.914	6.79702
332.255	6.79166
332.596	6.80715
332.937	6.84949
333.278	6.72453
333.619	6.76296
333.96	6.74362
334.3	6.74131
334.641	6.81713
334.981	6.81182
335.322	6.76722
335.662	6.78731
336.003	6.81429
336.343	6.75959
336.683	6.79926
337.023	6.80587
337.363	6.77886
337.703	6.77918
338.043	6.81471
338.382	6.80534
338.722	6.84107
339.062	6.78225
339.401	6.78697
339.741	6.85978
340.08	6.81199
340.419	6.79422
340.759	6.81433
341.098	6.8108
341.437	6.8131
341.776	6.81375
342.115	6.88752
342.454	6.92459
342.792	6.8603
343.131	6.84968
343.47	6.86949
343.808	6.92444
344.147	6.92496
344.485	6.93259
344.823	6.92178
345.162	6.95335
345.5	7.02602
345.838	6.9937
346.176	6.96377
346.514	7.01502
346.851	7.06265
347.189	7.01145
347.527	7.02616
347.865	7.13691
348.202	7.00317
348.54	7.13379
348.877	7.11494
349.214	7.07604
349.551	7.11571
349.889	7.10829
350.226	7.13231
350.563	7.13759
350.9	7.16367
351.236	7.16872
351.573	7.17818
351.91	7.15975
352.247	7.13881
352.583	7.24095
352.92	7.23149
353.256	7.24438
353.592	7.22408
353.929	7.26456
354.265	7.189
354.601	7.23514
354.937	7.37545
355.273	7.31485
355.609	7.37698
355.944	7.40116
356.28	7.37915
356.616	7.27995
356.951	7.36206
357.287	7.38254
357.622	7.50262
357.957	7.49222
358.293	7.5237
358.628	7.53741
358.963	7.50953
359.298	7.57341
359.633	7.59803
359.968	7.63736
360.303	7.63966
360.637	7.62812
360.972	7.62685
361.307	7.66081
361.641	7.68639
361.975	7.59696
362.31	7.69963
362.644	7.66423
362.978	7.76355
363.312	7.72846
363.646	7.71226
363.98	7.73974
364.314	7.88858
364.648	7.86975
364.982	7.78274
365.315	7.9152
365.649	7.86894
365.983	7.96949
366.316	7.92335
366.649	7.94575
366.983	7.90602
367.316	8.0107
367.649	7.96954
367.982	7.97096
368.315	8.07508
368.648	8.01004
368.981	8.18876
369.313	8.08919
369.646	8.14375
369.979	8.20138
370.311	8.13121
370.644	8.16177
370.976	8.23743
371.308	8.1908
371.641	8.14332
371.973	8.19438
372.305	8.18496
372.637	8.16504
372.969	8.2457
373.301	8.18581
373.632	8.18769
373.964	8.23354
374.296	8.23957
374.627	8.2645
374.959	8.30914
375.29	8.27922
375.621	8.34863
375.953	8.34821
376.284	8.32316
376.615	8.29367
376.946	8.30037
377.277	8.36912
377.608	8.32352
377.939	8.39092
378.269	8.39689
378.6	8.51788
378.931	8.45219
379.261	8.42962
379.591	8.50112
379.922	8.52209
380.252	8.47689
380.582	8.5484
380.912	8.5174
381.242	8.57843
381.572	8.52351
381.902	8.55243
382.232	8.569
382.562	8.64984
382.891	8.65668
383.221	8.67428
383.551	8.73976
383.88	8.65601
384.209	8.72412
384.539	8.66779
384.868	8.78171
385.197	8.66752
385.526	8.7868
385.855	8.76078
386.184	8.75114
386.513	8.79398
386.842	8.75842
387.17	8.79813
387.499	8.8282
387.828	8.87922
388.156	8.86131
388.484	8.79668
388.813	8.86478
389.141	8.79386
389.469	8.95435
389.797	8.8132
390.125	8.89284
390.453	8.92821
390.781	8.96485
391.109	8.91656
391.437	9.02259
391.764	8.9778
392.092	8.98766
392.419	9.05741
392.747	9.07944
393.074	9.05153
393.401	9.06715
393.729	9.01248
394.056	9.05307
394.383	9.10948
394.71	9.13076
395.037	9.18939
395.363	9.19311
395.69	9.26983
396.017	9.23512
396.344	9.29033
396.67	9.21707
396.997	9.40332
397.323	9.33155
397.649	9.41433
397.975	9.34495
398.302	9.34661
398.628	9.25242
398.954	9.43512
399.28	9.42368
399.606	9.41765
399.931	9.4282
400.257	9.56312
400.583	9.50252
400.908	9.593
401.234	9.59094
401.559	9.77943
401.884	9.57074
402.21	9.67092
402.535	9.66549
402.86	9.78137
403.185	9.71901
403.51	9.90676
403.835	9.68803
404.16	9.89092
404.485	9.97532
404.809	9.87662
405.134	9.98935
405.458	9.97753
405.783	9.91435
406.107	10.03017
406.432	10.05024
406.756	10.06518
407.08	10.25769
407.404	10.15812
407.728	10.10467
408.052	10.25048
408.376	10.15033
408.7	10.20581
409.023	10.32532
409.347	10.46581
409.671	10.34644
409.994	10.3473
410.317	10.44318
410.641	10.50792
410.964	10.5471
411.287	10.56439
411.61	10.60839
411.933	10.77352
412.256	10.61117
412.579	10.68646
412.902	10.67864
413.225	10.7969
413.548	10.8867
413.87	10.86461
414.193	10.85251
414.515	10.8825
414.838	10.95066
415.16	10.93603
415.482	11.04837
415.804	11.01851
416.126	11.18727
416.448	11.21899
416.77	11.17478
417.092	11.2685
417.414	11.25652
417.736	11.33791
418.057	11.48696
418.379	11.41644
418.701	11.46202
419.022	11.42875
419.343	11.4795
419.665	11.53075
419.986	11.47985
420.307	11.58544
420.628	11.57835
420.949	11.62765
421.27	11.72919
421.591	11.68714
421.912	11.81064
422.232	11.81399
422.553	11.92428
422.873	11.98409
423.194	11.9662
423.514	12.11926
423.835	12.29015
424.155	12.26897
424.475	12.30107
424.795	12.32646
425.115	12.51574
425.435	12.4771
425.755	12.56066
426.075	12.73084
426.395	12.74456
426.714	12.89188
427.034	12.89529
427.354	12.93212
427.673	12.99169
427.992	13.1181
428.312	13.04467
428.631	13.09036
428.95	13.0173
429.269	13.19606
429.588	13.04974
429.907	13.10718
430.226	13.18528
430.545	13.30281
430.864	13.33575
431.182	13.32956
431.501	13.46226
431.819	13.59261
432.138	13.66696
432.456	13.67331
432.774	13.6849
433.093	13.96706
433.411	13.89345
433.729	13.84479
434.047	13.9186
434.365	14.00318
434.683	14.25644
435	14.18602
435.318	14.19827
435.636	14.27971
435.953	14.08529
436.271	14.13815
436.588	14.20438
436.906	14.28891
437.223	14.35656
437.54	14.32212
437.857	14.38216
438.174	14.43375
438.491	14.50336
438.808	14.59776
439.125	14.49869
439.442	14.59024
439.758	14.83127
440.075	14.68238
440.392	14.85349
440.708	14.84447
441.024	14.70424
441.341	14.86729
441.657	14.80475
441.973	14.80634
442.289	14.97151
442.605	14.90952
442.921	14.9527
443.237	14.88319
443.553	14.89173
443.869	15.0247
444.184	14.92956
444.5	15.18054
444.816	15.33471
445.131	15.10664
445.446	15.10682
445.762	15.22222
446.077	15.21427
446.392	15.2412
446.707	15.13871
447.022	15.28595
447.337	15.31312
447.652	15.26828
447.967	15.51383
448.282	15.20856
448.596	15.31181
448.911	15.48887
449.225	15.53254
449.54	15.26201
449.854	15.5577
450.169	15.40653
450.483	15.52348
450.797	15.37089
451.111	15.50468
451.425	15.5624
451.739	15.75031
452.053	15.58743
452.367	15.66466
452.68	15.52225
452.994	15.54906
453.308	15.74514
453.621	15.8043
453.935	15.61418
454.248	15.51738
454.561	15.61114
454.874	15.5223
455.188	15.62768
455.501	15.62743
455.814	15.62636
456.127	15.56455
456.44	15.66057
456.752	15.58597
457.065	15.56945
457.378	15.48702
457.69	15.55302
458.003	15.60683
458.315	15.60008
458.628	15.53184
458.94	15.57148
459.252	15.54706
459.564	15.58525
459.876	15.74771
460.188	15.65667
460.5	15.65431
460.812	15.67986
461.124	15.7643
461.436	15.71457
461.747	15.74517
462.059	15.669
462.37	15.57768
462.682	15.70911
462.993	15.61922
463.304	15.60889
463.616	15.67526
463.927	15.55561
464.238	15.66015
464.549	15.61117
464.86	15.5363
465.171	15.5301
465.481	15.54928
465.792	15.61497
466.103	15.69767
466.413	15.75308
466.724	15.73477
467.034	15.78289
467.345	15.62004
467.655	15.57141
467.965	15.71248
468.275	15.71032
468.585	15.70298
468.895	15.68101
469.205	15.5459
469.515	15.56535
469.825	15.56793
470.135	15.70161
470.444	15.83743
470.754	15.74933
471.063	15.85334
471.373	15.56494
471.682	15.81201
471.991	15.71629
472.301	15.73701
472.61	15.77791
472.919	15.83996
473.228	15.7053
473.537	15.57882
473.846	15.68616
474.155	15.78886
474.463	15.79291
474.772	15.71306
475.08	15.68672
475.389	15.74921
475.697	15.85216
476.006	15.79025
476.314	15.7666
476.622	15.84166
476.93	15.76945
477.239	15.79201
477.547	15.82811
477.855	15.74216
478.162	15.83643
478.47	15.74962
478.778	15.73775
479.086	15.71375
479.393	15.87433
479.701	15.94582
480.008	15.7465
480.315	15.74804
480.623	15.76661
480.93	15.87743
481.237	15.97777
481.544	15.87807
481.851	15.80447
482.158	15.59252
482.465	15.80499
482.772	15.87277
483.079	15.79757
483.385	15.91524
483.692	15.7934
483.998	15.98039
484.305	15.7164
484.611	15.90145
484.918	15.92229
485.224	15.89694
485.53	15.89717
485.836	15.79647
486.142	15.89198
486.448	15.93088
486.754	15.93526
487.06	16.03116
487.366	15.93764
487.671	15.95517
487.977	15.93868
488.282	15.8607
488.588	15.9695
488.893	15.94961
489.199	15.97248
489.504	15.95731
489.809	15.88624
490.114	15.99549
490.419	15.87634
490.724	16.08591
491.029	16.08507
491.334	16.2476
491.639	16.07778
491.943	16.06371
492.248	15.92311
492.553	16.06317
492.857	16.09061
493.162	16.17323
493.466	16.22598
493.77	16.25015
494.074	16.28255
494.378	16.31904
494.683	16.24224
494.987	16.12273
495.29	16.26035
495.594	16.26381
495.898	16.28801
496.202	16.38075
496.505	16.36546
496.809	16.37447
497.113	16.40216
497.416	16.4846
497.719	16.51642
498.023	16.55092
498.326	16.42129
498.629	16.58043
498.932	16.55607
499.235	16.57284
499.538	16.75713
499.841	16.68286
500.144	16.66393
500.446	16.76656
500.749	16.74396
501.052	16.80215
501.354	16.89778
501.657	16.73418
501.959	16.98421
502.261	16.93233
502.564	16.97435
502.866	17.08419
503.168	17.02472
503.47	17.0888
503.772	17.28291
504.074	17.2266
504.376	17.36143
504.677	17.3001
504.979	17.48513
505.281	17.39329
505.582	17.35015
505.884	17.43226
506.185	17.53663
506.486	17.51922
506.788	17.71431
507.089	17.80211
507.39	17.90758
507.691	17.92693
507.992	17.98109
508.293	18.17325
508.594	18.02915
508.895	18.14509
509.195	18.23741
509.496	18.35721
509.797	18.35546
510.097	18.599
510.398	18.53436
510.698	18.6893
510.998	18.69424
511.298	18.87125
511.599	18.8592
511.899	18.99594
512.199	19.10844
512.499	19.27454
512.799	19.25868
513.098	19.26312
513.398	19.514
513.698	19.54496
513.997	19.76843
514.297	19.72816
514.596	19.86616
514.896	20.06312
515.195	20.21755
515.494	20.22094
515.794	20.59804
516.093	20.57024
516.392	20.56995
516.691	20.64725
516.99	20.89236
517.288	21.02497
517.587	21.09149
517.886	21.33749
518.185	21.40156
518.483	21.45763
518.782	21.53847
519.08	21.71861
519.378	21.95087
519.677	22.00959
519.975	22.14285
520.273	22.21784
520.571	22.47642
520.869	22.52623
521.167	22.62581
521.465	22.86178
521.763	22.98947
522.061	23.06906
522.358	23.11336
522.656	23.43462
522.953	23.43862
523.251	23.55434
523.548	23.68768
523.846	23.78579
524.143	23.92344
524.44	24.08077
524.737	24.17542
525.034	24.26091
525.331	24.44549
525.628	24.55997
525.925	24.57522
526.222	24.75821
526.518	24.7547
526.815	24.89797
527.112	25.08778
527.408	25.17112
527.705	25.21719
528.001	25.24098
528.297	25.33744
528.593	25.39155
528.89	25.56535
529.186	25.4044
529.482	25.54196
529.778	25.61444
530.074	25.54349
530.369	25.7562
530.665	25.74936
530.961	25.74814
531.256	25.65621
531.552	25.66035
531.847	25.91725
532.143	25.82205
532.438	25.82385
532.733	25.80127
533.029	25.72609
533.324	25.77632
533.619	25.73395
533.914	25.6796
534.209	25.72441
534.504	25.74927
534.798	25.63661
535.093	25.65595
535.388	25.61292
535.682	25.54592
535.977	25.59223
536.271	25.46093
536.566	25.60352
536.86	25.47326
537.154	25.46489
537.448	25.30648
537.742	25.57092
538.037	25.46393
538.33	25.39838
538.624	25.50801
538.918	25.44587
539.212	25.27651
539.506	25.4491
539.799	25.38722
540.093	25.25918
540.386	25.48392
540.68	25.45227
540.973	25.40771
541.266	25.50073
541.56	25.45008
541.853	25.45377
542.146	25.55448
542.439	25.60619
542.732	25.68142
543.025	25.61171
543.318	25.74861
543.61	25.73748
543.903	25.76364
544.196	25.91027
544.488	26.00027
544.781	25.89704
545.073	26.15028
545.365	26.03244
545.658	26.09853
545.95	26.20085
546.242	26.2821
546.534	26.33545
546.826	26.43297
547.118	26.49474
547.41	26.783
547.702	26.71
547.993	26.68287
548.285	26.73585
548.577	26.85096
548.868	27.01606
549.16	26.98118
549.451	27.17566
549.742	27.21888
550.034	27.3538
550.325	27.29943
550.616	27.37044
550.907	27.49871
551.198	27.56146
551.489	27.66691
551.78	27.71299
552.07	27.8387
552.361	27.94978
552.652	27.78858
552.942	27.99027
553.233	28.08146
553.523	27.99408
553.814	28.22421
554.104	28.09733
554.394	28.07844
554.684	28.2168
554.975	28.30108
555.265	28.27092
555.555	28.34981
555.845	28.32352
556.134	28.45853
556.424	28.45187
556.714	28.53325
557.003	28.49444
557.293	28.51656
557.583	28.55025
557.872	28.49336
558.161	28.49729
558.451	28.48394
558.74	28.62247
559.029	28.55859
559.318	28.75247
559.607	28.6376
559.896	28.58322
560.185	28.59418
560.474	28.59227
560.763	28.57028
561.051	28.63066
561.34	28.54605
561.629	28.66604
561.917	28.46387
562.205	28.69126
562.494	28.65472
562.782	28.58416
563.07	28.62067
563.359	28.58531
563.647	28.63226
563.935	28.37011
564.223	28.53723
564.51	28.47734
564.798	28.49629
565.086	28.61546
565.374	28.33148
565.661	28.33428
565.949	28.35233
566.236	28.39654
566.524	28.36283
566.811	28.29771
567.099	28.32978
567.386	28.28227
567.673	28.18971
567.96	28.24134
568.247	28.04221
568.534	28.09213
568.821	28.09178
569.108	28.07261
569.394	28.03742
569.681	28.03261
569.968	28.1061
570.254	27.94026
570.541	27.95309
570.827	27.96649
571.114	27.88662
571.4	27.82663
571.686	27.8393
571.972	27.7147
572.258	27.88262
572.544	27.80932
572.83	27.74746
573.116	27.71038
573.402	27.70699
573.688	27.6936
573.973	27.54877
574.259	27.71239
574.545	27.65911
574.83	27.68145
575.116	27.42187
575.401	27.5948
575.686	27.57313
575.971	27.5716
576.257	27.46507
576.542	27.46651
576.827	27.44246
577.112	27.34946
577.397	27.38179
577.681	27.48071
577.966	27.28856
578.251	27.26748
578.536	27.39672
578.82	27.30254
579.105	27.19002
579.389	27.30195
579.673	27.29721
579.958	27.23277
580.242	27.24527
580.526	27.18048
580.81	27.0797
581.094	27.05615
581.378	27.09513
581.662	27.06434
581.946	27.12996
582.23	26.96394
582.513	26.9971
582.797	26.99283
583.081	26.98243
583.364	26.89261
583.648	26.84682
583.931	26.99223
584.214	26.77968
584.498	26.74885
584.781	26.80252
585.064	26.9905
585.347	26.8037
585.63	26.75059
585.913	26.8123
586.196	26.63961
586.478	26.78323
