Data from Reflection__10__10-02-17-543.txt Node

Date: Wed Jul 02 10:02:17 BST 2025
User: Jamie
Spectrometer: HDX00312
Trigger mode: 0
Integration Time (sec): 1.070000E-1
Scans to average: 10
Nonlinearity correction enabled: true
Boxcar width: 0
Storing dark spectrum: false
XAxis mode: Wavelengths
Number of Pixels in Spectrum: 2068
>>>>>Begin Spectral Data<<<<<
196.211	184.61438
196.582	169.0901
196.954	108.33325
197.325	289.65317
197.696	193.24685
198.067	162.94019
198.438	135.81954
198.809	111.4029
199.18	100.58782
199.551	100.18955
199.922	100.27442
200.293	102.87285
200.663	99.54353
201.034	102.27556
201.404	97.64474
201.774	104.21638
202.144	101.48855
202.515	98.63005
202.885	101.26493
203.255	104.53507
203.625	103.64143
203.994	100.33938
204.364	96.84085
204.734	105.70569
205.103	99.88978
205.473	102.012
205.842	100.85188
206.212	103.2393
206.581	100.43925
206.95	99.12438
207.319	96.25302
207.688	95.61888
208.057	99.53949
208.426	94.75847
208.795	96.15378
209.163	100.43166
209.532	96.4843
209.9	95.30454
210.269	92.56945
210.637	90.64991
211.005	92.51842
211.374	92.3901
211.742	93.56547
212.11	88.9034
212.478	91.58122
212.846	93.55784
213.213	90.64897
213.581	90.97121
213.949	85.71091
214.316	87.19169
214.684	85.68087
215.051	82.81411
215.418	86.0963
215.786	80.52546
216.153	83.86551
216.52	81.31494
216.887	75.781
217.254	76.58028
217.62	76.28278
217.987	75.62148
218.354	71.18576
218.72	69.36427
219.087	68.1422
219.453	65.967
219.819	62.48825
220.186	59.8918
220.552	57.73686
220.918	55.27742
221.284	52.65143
221.65	49.15722
222.016	46.98138
222.381	45.62476
222.747	43.09709
223.113	41.88065
223.478	41.39405
223.844	39.62461
224.209	38.78687
224.574	37.85546
224.939	37.57419
225.304	35.85453
225.669	35.84732
226.034	34.78653
226.399	34.21082
226.764	33.9894
227.129	33.57888
227.493	33.39967
227.858	33.10001
228.222	32.40079
228.587	32.50931
228.951	32.0794
229.315	32.33674
229.679	31.66814
230.043	31.54242
230.407	31.23351
230.771	31.14943
231.135	31.47982
231.499	31.26739
231.862	31.17573
232.226	31.11555
232.589	31.0034
232.953	31.03053
233.316	31.03955
233.679	30.9417
234.042	30.84536
234.405	30.79503
234.768	30.82878
235.131	30.96363
235.494	30.78135
235.857	30.80055
236.22	30.81903
236.582	30.7569
236.945	30.76585
237.307	30.86453
237.669	30.92953
238.032	30.89008
238.394	31.0168
238.756	31.00145
239.118	31.06125
239.48	31.02475
239.842	31.09744
240.204	30.99543
240.565	31.05523
240.927	31.16263
241.288	31.15518
241.65	31.11714
242.011	31.29762
242.373	31.21927
242.734	31.2152
243.095	31.33866
243.456	31.31739
243.817	31.40227
244.178	31.26397
244.539	31.41037
244.899	31.39553
245.26	31.44311
245.621	31.55862
245.981	31.57741
246.341	31.54611
246.702	31.49853
247.062	31.41162
247.422	31.52534
247.782	31.4981
248.142	31.54652
248.502	31.43861
248.862	31.46765
249.222	31.51548
249.582	31.49285
249.941	31.43927
250.301	31.42326
250.66	31.46677
251.02	31.38937
251.379	31.38935
251.738	31.39505
252.097	31.36133
252.456	31.30249
252.815	31.34537
253.174	31.30387
253.533	31.37151
253.892	31.39046
254.25	31.45621
254.609	31.54624
254.967	31.32171
255.326	31.37434
255.684	31.4287
256.042	31.32729
256.4	31.45491
256.759	31.35601
257.117	31.43784
257.474	31.52766
257.832	31.55926
258.19	31.59666
258.548	31.55857
258.905	31.51766
259.263	31.61
259.62	31.63343
259.978	31.65561
260.335	31.69084
260.692	31.84305
261.049	31.74651
261.406	31.90289
261.763	31.91453
262.12	31.92515
262.477	31.90743
262.834	31.8696
263.19	32.09617
263.547	32.15721
263.904	32.10563
264.26	32.15962
264.616	32.22851
264.973	32.24422
265.329	32.52943
265.685	32.4008
266.041	32.4235
266.397	32.50706
266.753	32.6502
267.108	32.76549
267.464	32.78399
267.82	32.86667
268.175	32.94214
268.531	32.94428
268.886	32.98255
269.241	32.96057
269.597	33.09238
269.952	33.06182
270.307	33.13208
270.662	33.3403
271.017	33.31972
271.371	33.26959
271.726	33.34818
272.081	33.45053
272.435	33.53927
272.79	33.58589
273.144	33.52433
273.499	33.65292
273.853	33.71807
274.207	33.69282
274.561	33.74632
274.915	33.75302
275.269	33.96702
275.623	33.98942
275.977	33.97882
276.331	33.96667
276.684	33.96693
277.038	34.11848
277.391	34.09474
277.745	34.01752
278.098	34.04905
278.451	34.09453
278.804	34.13623
279.157	34.34021
279.51	34.33248
279.863	34.31748
280.216	34.37594
280.569	34.35126
280.922	34.46904
281.274	34.46698
281.627	34.46321
281.979	34.44712
282.332	34.5141
282.684	34.69453
283.036	34.7646
283.388	34.77809
283.74	34.78145
284.092	34.74586
284.444	34.84493
284.796	34.84762
285.148	35.02927
285.499	34.93478
285.851	34.75045
286.202	34.98238
286.554	34.85899
286.905	35.0479
287.257	35.00099
287.608	35.15215
287.959	35.05422
288.31	35.04965
288.661	35.11059
289.012	35.26769
289.362	35.24163
289.713	35.11682
290.064	35.37015
290.414	35.38966
290.765	35.27646
291.115	35.47426
291.466	35.48116
291.816	35.61029
292.166	35.64875
292.516	35.59951
292.866	35.65435
293.216	35.69425
293.566	35.77692
293.916	35.83054
294.265	35.81555
294.615	35.81734
294.964	35.97638
295.314	35.98355
295.663	35.98341
296.013	36.05268
296.362	36.01259
296.711	36.17993
297.06	36.02407
297.409	36.17241
297.758	36.29715
298.107	36.2441
298.455	36.32806
298.804	36.34678
299.153	36.40552
299.501	36.28912
299.85	36.32662
300.198	36.46573
300.546	36.48583
300.894	36.46286
301.243	36.45015
301.591	36.45388
301.939	36.49664
302.287	36.55754
302.634	36.54678
302.982	36.5913
303.33	36.60272
303.677	36.62654
304.025	36.72099
304.372	36.67535
304.72	36.74445
305.067	36.73004
305.414	36.6599
305.761	36.81666
306.108	36.83461
306.455	36.81144
306.802	36.93265
307.149	36.92659
307.495	36.90454
307.842	36.8375
308.189	36.93149
308.535	37.06261
308.882	37.08204
309.228	37.07888
309.574	37.1042
309.92	37.16115
310.266	37.1003
310.612	37.10365
310.958	37.06823
311.304	37.18986
311.65	37.16936
311.996	37.29773
312.341	37.29813
312.687	37.34528
313.032	37.30857
313.378	37.33616
313.723	37.36845
314.068	37.4325
314.413	37.49929
314.759	37.45246
315.104	37.58713
315.449	37.41885
315.793	37.57722
316.138	37.61532
316.483	37.68864
316.827	37.62344
317.172	37.7509
317.516	37.78593
317.861	37.78587
318.205	37.77158
318.549	37.95029
318.894	38.00967
319.238	38.00522
319.582	38.06084
319.926	38.0736
320.269	38.05753
320.613	38.20314
320.957	38.21909
321.3	38.45153
321.644	38.33879
321.987	38.34518
322.331	38.42916
322.674	38.58863
323.017	38.61765
323.36	38.60734
323.704	38.7612
324.047	38.75313
324.389	38.75068
324.732	38.9673
325.075	38.99172
325.418	38.98298
325.76	39.0256
326.103	39.12629
326.445	39.1108
326.788	39.18761
327.13	39.29978
327.472	39.30295
327.814	39.42954
328.156	39.51453
328.498	39.68931
328.84	39.62944
329.182	39.7304
329.524	39.84261
329.866	39.76325
330.207	39.92819
330.549	40.0481
330.89	39.99114
331.231	40.24503
331.573	40.29708
331.914	40.1846
332.255	40.34996
332.596	40.39953
332.937	40.48489
333.278	40.68535
333.619	40.62747
333.96	40.76802
334.3	40.70636
334.641	40.88957
334.981	40.93738
335.322	41.00117
335.662	41.1176
336.003	41.16194
336.343	41.24142
336.683	41.27685
337.023	41.255
337.363	41.48519
337.703	41.47257
338.043	41.72202
338.382	41.72371
338.722	41.68779
339.062	41.8612
339.401	41.95618
339.741	41.91101
340.08	41.90299
340.419	42.00045
340.759	42.1426
341.098	42.10309
341.437	42.18112
341.776	42.43808
342.115	42.38366
342.454	42.58365
342.792	42.6602
343.131	42.37779
343.47	42.74789
343.808	42.68347
344.147	42.79033
344.485	42.83787
344.823	42.97189
345.162	42.95868
345.5	43.07452
345.838	43.10766
346.176	43.1015
346.514	43.25987
346.851	43.30779
347.189	43.0751
347.527	43.38969
347.865	43.35203
348.202	43.55936
348.54	43.46974
348.877	43.72373
349.214	43.64085
349.551	43.59383
349.889	43.8849
350.226	43.85654
350.563	43.84567
350.9	43.96282
351.236	43.91028
351.573	43.94567
351.91	43.97283
352.247	44.04226
352.583	43.98753
352.92	44.18578
353.256	44.2444
353.592	44.24895
353.929	44.15285
354.265	44.30529
354.601	44.35369
354.937	44.35748
355.273	44.31114
355.609	44.3884
355.944	44.71942
356.28	44.63891
356.616	44.52629
356.951	44.55981
357.287	44.71296
357.622	44.66068
357.957	44.68035
358.293	44.75382
358.628	44.84308
358.963	44.95003
359.298	44.9291
359.633	44.90433
359.968	45.2774
360.303	45.02981
360.637	45.05886
360.972	44.98724
361.307	45.1576
361.641	45.19174
361.975	45.16964
362.31	45.42783
362.644	45.35516
362.978	45.44132
363.312	45.36975
363.646	45.44587
363.98	45.45312
364.314	45.41324
364.648	45.48438
364.982	45.69628
365.315	45.75204
365.649	45.80321
365.983	45.68519
366.316	45.73486
366.649	45.98326
366.983	46.05578
367.316	46.19469
367.649	46.21989
367.982	45.99862
368.315	46.04322
368.648	46.17311
368.981	45.87005
369.313	46.35469
369.646	46.65971
369.979	46.30524
370.311	46.35569
370.644	46.54513
370.976	46.5904
371.308	46.71319
371.641	46.56647
371.973	46.74523
372.305	46.38903
372.637	46.64148
372.969	46.77982
373.301	46.72284
373.632	46.55914
373.964	46.56628
374.296	46.81703
374.627	46.70149
374.959	46.7996
375.29	47.0559
375.621	46.93653
375.953	46.96188
376.284	47.14611
376.615	47.15837
376.946	47.02569
377.277	47.06661
377.608	47.33419
377.939	47.16847
378.269	47.30721
378.6	47.17745
378.931	47.2321
379.261	47.29743
379.591	47.40379
379.922	47.33329
380.252	47.34962
380.582	47.36684
380.912	47.62233
381.242	47.47603
381.572	47.7657
381.902	47.29061
382.232	47.43192
382.562	47.6264
382.891	47.67069
383.221	47.67574
383.551	47.44745
383.88	47.60327
384.209	47.59951
384.539	47.63567
384.868	47.58932
385.197	47.8263
385.526	47.81536
385.855	47.77615
386.184	48.03636
386.513	47.86208
386.842	47.81028
387.17	47.75581
387.499	48.00997
387.828	47.70515
388.156	47.63051
388.484	47.84443
388.813	47.95369
389.141	48.09389
389.469	47.98189
389.797	47.91921
390.125	47.95518
390.453	47.9387
390.781	47.93087
391.109	47.954
391.437	48.05455
391.764	48.07086
392.092	48.3342
392.419	48.14593
392.747	48.13504
393.074	48.46369
393.401	48.32368
393.729	48.3347
394.056	48.28572
394.383	48.14706
394.71	48.34125
395.037	48.41663
395.363	48.28611
395.69	48.40024
396.017	48.45135
396.344	48.58865
396.67	48.37921
396.997	48.69627
397.323	48.538
397.649	48.55581
397.975	48.42123
398.302	48.34334
398.628	48.30948
398.954	48.5392
399.28	48.61975
399.606	48.70135
399.931	48.49443
400.257	48.84772
400.583	48.54621
400.908	48.7457
401.234	48.86603
401.559	48.64504
401.884	48.55864
402.21	48.66516
402.535	48.86082
402.86	48.91014
403.185	48.82359
403.51	48.9878
403.835	48.87543
404.16	49.01359
404.485	49.31501
404.809	49.13482
405.134	49.11414
405.458	49.23531
405.783	49.24915
406.107	49.26433
406.432	49.35869
406.756	49.04502
407.08	49.20087
407.404	49.15764
407.728	49.29125
408.052	49.37612
408.376	49.70417
408.7	49.61811
409.023	49.41761
409.347	49.76491
409.671	49.49656
409.994	49.79911
410.317	49.72259
410.641	49.78975
410.964	49.64664
411.287	49.64165
411.61	49.79652
411.933	49.95789
412.256	49.78473
412.579	49.98429
412.902	50.12617
413.225	49.9452
413.548	49.84755
413.87	50.04428
414.193	50.17634
414.515	50.2939
414.838	50.17966
415.16	50.34612
415.482	50.52392
415.804	50.43305
416.126	50.63557
416.448	50.75288
416.77	50.37955
417.092	50.3983
417.414	50.56126
417.736	50.70015
418.057	50.49458
418.379	50.4878
418.701	50.57218
419.022	50.74198
419.343	50.64084
419.665	50.7538
419.986	50.93369
420.307	51.02759
420.628	51.10933
420.949	51.34993
421.27	51.23409
421.591	51.28942
421.912	51.30947
422.232	51.18495
422.553	51.21341
422.873	51.3377
423.194	51.38466
423.514	51.43377
423.835	51.65852
424.155	51.60413
424.475	51.79892
424.795	51.37912
425.115	51.50708
425.435	51.79951
425.755	51.78843
426.075	51.82147
426.395	51.98461
426.714	52.10241
427.034	52.24053
427.354	52.06123
427.673	52.07087
427.992	52.17981
428.312	52.25293
428.631	52.47273
428.95	52.35982
429.269	52.36004
429.588	52.1662
429.907	52.42091
430.226	52.59658
430.545	52.78911
430.864	52.89046
431.182	52.25772
431.501	52.78453
431.819	53.06961
432.138	52.67559
432.456	53.0163
432.774	53.11153
433.093	53.28612
433.411	53.26017
433.729	53.26884
434.047	53.11175
434.365	53.07533
434.683	53.26571
435	53.62093
435.318	53.17819
435.636	53.43262
435.953	53.54064
436.271	52.8996
436.588	53.1297
436.906	53.13305
437.223	52.92929
437.54	53.45139
437.857	53.21482
438.174	53.47613
438.491	53.40689
438.808	53.38985
439.125	53.57603
439.442	53.47278
439.758	53.37576
440.075	53.5328
440.392	53.69683
440.708	53.443
441.024	53.61025
441.341	53.67717
441.657	53.44087
441.973	53.68747
442.289	53.666
442.605	53.64277
442.921	53.87012
443.237	53.57928
443.553	54.24057
443.869	53.71113
444.184	53.9411
444.5	53.41044
444.816	53.78442
445.131	53.83544
445.446	53.70052
445.762	53.83744
446.077	53.81875
446.392	53.92048
446.707	53.96777
447.022	53.74884
447.337	53.81367
447.652	53.7871
447.967	53.91535
448.282	53.88325
448.596	53.38842
448.911	54.20275
449.225	54.36224
449.54	54.26144
449.854	53.72484
450.169	53.98406
450.483	53.78456
450.797	54.20154
451.111	54.27051
451.425	53.99628
451.739	53.87323
452.053	53.97119
452.367	54.1049
452.68	53.97087
452.994	54.14343
453.308	54.06773
453.621	53.86264
453.935	54.29569
454.248	54.14984
454.561	54.0556
454.874	54.24777
455.188	54.01453
455.501	53.67427
455.814	53.78586
456.127	53.9937
456.44	54.01293
456.752	53.93187
457.065	53.6588
457.378	53.70523
457.69	54.23449
458.003	54.21191
458.315	53.85779
458.628	53.82514
458.94	53.77307
459.252	53.86745
459.564	53.76481
459.876	53.9334
460.188	53.62495
460.5	54.0096
460.812	53.94979
461.124	53.79962
461.436	54.07534
461.747	54.34948
462.059	53.99521
462.37	53.93953
462.682	54.22341
462.993	53.94914
463.304	53.87656
463.616	54.17019
463.927	53.67934
464.238	53.56803
464.549	53.9114
464.86	53.5658
465.171	54.10255
465.481	53.8516
465.792	54.19282
466.103	53.72416
466.413	53.87246
466.724	53.75991
467.034	53.83701
467.345	53.57755
467.655	54.08656
467.965	53.96752
468.275	53.98198
468.585	54.02638
468.895	53.46858
469.205	54.10052
469.515	54.1237
469.825	54.02325
470.135	54.0196
470.444	53.91063
470.754	53.99214
471.063	54.01136
471.373	53.72089
471.682	53.7672
471.991	54.08863
472.301	54.00662
472.61	54.23073
472.919	53.85351
473.228	54.08735
473.537	54.02815
473.846	54.0301
474.155	53.9902
474.463	53.99865
474.772	53.87515
475.08	54.0978
475.389	54.08503
475.697	54.1093
476.006	53.95905
476.314	53.85692
476.622	53.91166
476.93	54.10001
477.239	53.96749
477.547	54.15687
477.855	54.04569
478.162	54.08255
478.47	54.1577
478.778	54.09383
479.086	54.18337
479.393	54.22455
479.701	54.1243
480.008	53.6989
480.315	54.11244
480.623	54.28048
480.93	54.24697
481.237	54.13758
481.544	54.20586
481.851	54.24907
482.158	54.32639
482.465	53.99843
482.772	54.27919
483.079	54.19697
483.385	54.23735
483.692	54.22794
483.998	54.07011
484.305	54.22505
484.611	54.15701
484.918	54.04966
485.224	54.30032
485.53	54.48333
485.836	54.50709
486.142	54.34827
486.448	54.21179
486.754	54.61186
487.06	54.39408
487.366	54.47551
487.671	54.36626
487.977	54.48504
488.282	54.19492
488.588	54.39162
488.893	54.37941
489.199	54.29058
489.504	54.67962
489.809	54.63797
490.114	54.37152
490.419	54.59398
490.724	54.48204
491.029	54.56205
491.334	54.79271
491.639	54.38697
491.943	54.88937
492.248	54.78868
492.553	54.92644
492.857	54.9809
493.162	54.98825
493.466	54.82946
493.77	54.80212
494.074	55.01571
494.378	55.24352
494.683	55.25269
494.987	55.25209
495.29	55.17829
495.594	55.26868
495.898	55.3553
496.202	55.66772
496.505	55.40306
496.809	55.2489
497.113	55.57495
497.416	55.61388
497.719	55.72545
498.023	55.47462
498.326	55.6614
498.629	55.71713
498.932	55.82803
499.235	55.81941
499.538	55.88155
499.841	55.88963
500.144	56.07448
500.446	55.95662
500.749	55.76709
501.052	56.16378
501.354	55.91284
501.657	56.19611
501.959	56.22069
502.261	56.21884
502.564	56.18636
502.866	56.20491
503.168	56.44193
503.47	56.23857
503.772	56.52873
504.074	56.55062
504.376	56.75542
504.677	56.70555
504.979	56.75536
505.281	56.76264
505.582	56.76769
505.884	57.08431
506.185	56.78639
506.486	57.09336
506.788	57.06921
507.089	57.12078
507.39	57.1925
507.691	57.50858
507.992	57.46167
508.293	57.74685
508.594	57.66106
508.895	57.75012
509.195	57.86408
509.496	58.00957
509.797	57.77271
510.097	57.81697
510.398	58.09592
510.698	58.11881
510.998	58.14756
511.298	58.26395
511.599	58.22436
511.899	58.73314
512.199	58.62691
512.499	58.78398
512.799	58.726
513.098	58.81645
513.398	58.8941
513.698	58.87404
513.997	59.25504
514.297	58.9757
514.596	59.2123
514.896	59.60105
515.195	59.72931
515.494	59.73697
515.794	59.79148
516.093	60.12411
516.392	60.19938
516.691	60.13494
516.99	60.07926
517.288	60.53418
517.587	60.39097
517.886	60.7387
518.185	60.68124
518.483	61.00616
518.782	61.16341
519.08	61.14164
519.378	61.23428
519.677	61.5453
519.975	61.72563
520.273	61.72171
520.571	61.55393
520.869	61.66032
521.167	62.20589
521.465	62.18368
521.763	62.4897
522.061	62.10481
522.358	62.55575
522.656	62.60329
522.953	62.42403
523.251	62.89399
523.548	62.80257
523.846	62.75387
524.143	62.9933
524.44	63.13314
524.737	63.07402
525.034	63.26844
525.331	63.27524
525.628	63.38618
525.925	63.45606
526.222	63.6155
526.518	63.39227
526.815	63.64679
527.112	63.825
527.408	63.62385
527.705	63.99036
528.001	64.05177
528.297	64.5311
528.593	63.89758
528.89	64.37874
529.186	63.87336
529.482	63.97692
529.778	63.69199
530.074	63.90868
530.369	64.12829
530.665	63.97465
530.961	63.89853
531.256	64.09852
531.552	64.22907
531.847	64.14244
532.143	64.06182
532.438	64.11091
532.733	63.85924
533.029	64.14645
533.324	64.03739
533.619	63.88895
533.914	63.8978
534.209	63.88602
534.504	64.00495
534.798	63.94605
535.093	63.90974
535.388	63.96016
535.682	63.91796
535.977	63.83279
536.271	63.66357
536.566	63.93148
536.86	63.65423
537.154	63.65516
537.448	63.71562
537.742	63.50804
538.037	63.68351
538.33	63.47325
538.624	63.32515
538.918	63.36529
539.212	63.39524
539.506	63.77844
539.799	63.55691
540.093	63.55505
540.386	63.07741
540.68	63.34374
540.973	63.35782
541.266	63.39682
541.56	63.44312
541.853	63.34431
542.146	63.34889
542.439	63.39744
542.732	63.4101
543.025	63.55107
543.318	63.78128
543.61	63.81607
543.903	63.69621
544.196	63.95433
544.488	63.68327
544.781	64.06682
545.073	64.05717
545.365	64.18261
545.658	64.27324
545.95	64.14546
546.242	64.17515
546.534	64.3401
546.826	64.59603
547.118	64.71291
547.41	64.56938
547.702	64.87607
547.993	65.02494
548.285	64.81093
548.577	65.0178
548.868	65.15419
549.16	65.24178
549.451	65.05329
549.742	65.14068
550.034	65.20228
550.325	65.57948
550.616	65.36643
550.907	65.21065
551.198	65.658
551.489	65.98612
551.78	65.67127
552.07	65.71886
552.361	65.80502
552.652	65.57048
552.942	65.92011
553.233	66.01476
553.523	66.16868
553.814	65.8897
554.104	66.44845
554.394	66.50732
554.684	66.20288
554.975	66.55259
555.265	66.42543
555.555	66.73873
555.845	66.74053
556.134	66.58779
556.424	66.94345
556.714	66.66054
557.003	66.72722
557.293	66.81584
557.583	67.03397
557.872	66.68013
558.161	67.07888
558.451	67.15701
558.74	66.92524
559.029	67.21206
559.318	67.08974
559.607	66.75123
559.896	67.21303
560.185	67.15624
560.474	66.93063
560.763	67.02968
561.051	67.18589
561.34	67.10283
561.629	67.01895
561.917	67.2116
562.205	66.77068
562.494	67.27719
562.782	67.2788
563.07	67.29493
563.359	67.16601
563.647	67.19531
563.935	67.24813
564.223	67.14946
564.51	67.29372
564.798	67.33103
565.086	67.33632
565.374	67.25505
565.661	67.35016
565.949	67.30879
566.236	67.48095
566.524	67.51104
566.811	67.37244
567.099	67.46815
567.386	67.30049
567.673	67.28078
567.96	67.3875
568.247	67.13724
568.534	67.15045
568.821	67.14413
569.108	67.20824
569.394	67.23535
569.681	67.05109
569.968	67.47729
570.254	67.26284
570.541	67.28896
570.827	67.0867
571.114	67.27027
571.4	67.29923
571.686	67.2977
571.972	67.40075
572.258	67.49924
572.544	67.21905
572.83	67.32227
573.116	67.21709
573.402	67.4612
573.688	67.12612
573.973	67.40147
574.259	67.3379
574.545	67.3821
574.83	67.46178
575.116	67.30197
575.401	67.49739
575.686	67.44451
575.971	67.59253
576.257	67.34845
576.542	67.66551
576.827	67.50082
577.112	67.33892
577.397	67.3831
577.681	67.5812
577.966	67.40804
