Data from Reflection__9__15-58-37-824.txt Node

Date: Wed Jul 02 15:58:37 BST 2025
User: Jamie
Spectrometer: HDX00312
Trigger mode: 0
Integration Time (sec): 6.900000E-2
Scans to average: 10
Nonlinearity correction enabled: true
Boxcar width: 0
Storing dark spectrum: false
XAxis mode: Wavelengths
Number of Pixels in Spectrum: 2068
>>>>>Begin Spectral Data<<<<<
196.211	297.17796
196.582	173.39275
196.954	179.78554
197.325	195.12003
197.696	110.68844
198.067	100.7517
198.438	96.29028
198.809	84.03185
199.18	83.5883
199.551	82.8461
199.922	84.58196
200.293	84.67772
200.663	87.1841
201.034	86.12896
201.404	82.39111
201.774	80.39601
202.144	82.60247
202.515	83.13384
202.885	87.66858
203.255	84.77645
203.625	84.18708
203.994	84.09959
204.364	80.21286
204.734	81.26425
205.103	82.87974
205.473	83.40037
205.842	83.59831
206.212	84.38178
206.581	82.58204
206.95	84.69656
207.319	83.7489
207.688	80.37027
208.057	83.02116
208.426	81.86164
208.795	82.33477
209.163	81.04292
209.532	83.48176
209.9	82.50257
210.269	80.85879
210.637	81.18844
211.005	80.74937
211.374	80.79339
211.742	82.11126
212.11	78.32478
212.478	79.38484
212.846	79.44718
213.213	78.64078
213.581	80.44784
213.949	78.89558
214.316	76.19739
214.684	76.89494
215.051	78.24107
215.418	76.048
215.786	75.57532
216.153	74.74654
216.52	76.87675
216.887	70.14374
217.254	75.4536
217.62	72.53948
217.987	69.52222
218.354	71.79816
218.72	69.5955
219.087	67.73983
219.453	66.34279
219.819	61.02237
220.186	62.25634
220.552	60.40423
220.918	59.9877
221.284	58.76833
221.65	56.95093
222.016	55.35786
222.381	54.12334
222.747	52.77468
223.113	50.86026
223.478	50.28937
223.844	49.53842
224.209	49.41826
224.574	47.03265
224.939	46.49386
225.304	45.30812
225.669	45.20007
226.034	45.24267
226.399	45.05832
226.764	43.53303
227.129	43.22115
227.493	42.87899
227.858	43.05531
228.222	43.1144
228.587	42.19913
228.951	42.71811
229.315	42.0186
229.679	41.78574
230.043	41.80419
230.407	41.50019
230.771	41.53433
231.135	41.1638
231.499	41.22677
231.862	41.34548
232.226	41.14709
232.589	41.16794
232.953	41.13698
233.316	40.89419
233.679	41.23122
234.042	41.28317
234.405	41.0713
234.768	41.01691
235.131	41.34647
235.494	41.25388
235.857	41.3028
236.22	41.19138
236.582	41.32146
236.945	41.63127
237.307	41.47685
237.669	41.56252
238.032	41.70777
238.394	41.58644
238.756	41.73762
239.118	41.61012
239.48	41.72962
239.842	41.76223
240.204	41.96286
240.565	41.92013
240.927	41.88273
241.288	42.00305
241.65	41.84203
242.011	41.97532
242.373	41.79681
242.734	41.75305
243.095	41.8824
243.456	41.863
243.817	41.94148
244.178	41.81672
244.539	41.65505
244.899	41.65961
245.26	41.57017
245.621	41.45561
245.981	41.49904
246.341	41.44075
246.702	41.47096
247.062	41.32447
247.422	41.34955
247.782	41.04382
248.142	41.18227
248.502	41.02097
248.862	40.91132
249.222	40.93836
249.582	40.88637
249.941	40.6161
250.301	40.69194
250.66	40.60333
251.02	40.55873
251.379	40.44052
251.738	40.31098
252.097	40.35924
252.456	40.23998
252.815	40.23261
253.174	40.16185
253.533	40.23635
253.892	40.26799
254.25	40.11834
254.609	40.14633
254.967	40.00414
255.326	39.91745
255.684	39.87211
256.042	39.92047
256.4	39.9793
256.759	39.94691
257.117	39.87692
257.474	40.05914
257.832	39.93183
258.19	39.93468
258.548	40.01411
258.905	40.0163
259.263	40.0157
259.62	39.98388
259.978	40.1912
260.335	40.19436
260.692	40.07097
261.049	40.23611
261.406	40.28834
261.763	40.3014
262.12	40.45885
262.477	40.77848
262.834	40.72629
263.19	40.77958
263.547	40.68872
263.904	41.08118
264.26	41.11915
264.616	41.11399
264.973	41.08587
265.329	41.14296
265.685	41.65861
266.041	41.70705
266.397	41.57361
266.753	41.6839
267.108	41.82484
267.464	41.82376
267.82	42.1748
268.175	42.35804
268.531	42.37509
268.886	42.67895
269.241	42.64761
269.597	42.51148
269.952	42.74733
270.307	42.83931
270.662	42.96085
271.017	43.08256
271.371	43.41273
271.726	43.29045
272.081	43.34013
272.435	43.65384
272.79	43.5863
273.144	43.74744
273.499	43.95191
273.853	44.06112
274.207	44.24677
274.561	44.2752
274.915	44.37378
275.269	44.4634
275.623	44.58406
275.977	44.80318
276.331	44.71228
276.684	44.75334
277.038	45.16493
277.391	45.0479
277.745	45.2463
278.098	45.32484
278.451	45.46537
278.804	45.47637
279.157	45.41421
279.51	45.88922
279.863	45.56339
280.216	46.01428
280.569	45.89031
280.922	46.18015
281.274	46.16656
281.627	46.26393
281.979	46.47393
282.332	46.37416
282.684	46.60184
283.036	46.64926
283.388	46.71789
283.74	46.80211
284.092	47.03119
284.444	47.05031
284.796	47.01228
285.148	47.36463
285.499	47.23192
285.851	47.4848
286.202	47.29563
286.554	47.52861
286.905	47.61136
287.257	47.70129
287.608	47.7291
287.959	47.84667
288.31	47.90814
288.661	48.03485
289.012	48.04014
289.362	48.28766
289.713	48.40651
290.064	48.66656
290.414	48.53307
290.765	48.6928
291.115	48.75299
291.466	48.84461
291.816	49.15168
292.166	49.178
292.516	49.2812
292.866	49.13799
293.216	49.24146
293.566	49.29828
293.916	49.54481
294.265	49.40788
294.615	49.41402
294.964	49.59434
295.314	49.54679
295.663	49.6266
296.013	49.91127
296.362	49.77055
296.711	49.99092
297.06	49.93885
297.409	49.85175
297.758	49.82312
298.107	50.09309
298.455	50.00652
298.804	49.92016
299.153	50.08887
299.501	50.21275
299.85	50.14241
300.198	50.19778
300.546	50.19027
300.894	50.38136
301.243	50.09304
301.591	50.17401
301.939	50.17053
302.287	50.35066
302.634	50.48395
302.982	50.31951
303.33	50.42505
303.677	50.22547
304.025	50.29174
304.372	50.31591
304.72	50.34124
305.067	50.33539
305.414	50.33592
305.761	50.27722
306.108	50.31778
306.455	50.2616
306.802	50.34223
307.149	50.34897
307.495	50.1626
307.842	50.25866
308.189	50.24443
308.535	50.37653
308.882	50.31758
309.228	50.19329
309.574	50.19971
309.92	50.30514
310.266	50.24791
310.612	50.22227
310.958	50.32223
311.304	50.25075
311.65	50.21708
311.996	50.04793
312.341	50.08544
312.687	50.31101
313.032	50.35682
313.378	50.163
313.723	50.34748
314.068	50.19994
314.413	50.07436
314.759	50.24969
315.104	50.32017
315.449	50.05864
315.793	50.2536
316.138	50.29048
316.483	50.37218
316.827	50.1501
317.172	50.27302
317.516	50.26009
317.861	50.22776
318.205	50.21208
318.549	50.17896
318.894	50.17627
319.238	50.12657
319.582	50.11878
319.926	50.27383
320.269	50.17091
320.613	50.42151
320.957	50.26927
321.3	49.97645
321.644	50.07964
321.987	50.1538
322.331	50.14208
322.674	50.00928
323.017	49.97652
323.36	49.96786
323.704	49.9002
324.047	50.08375
324.389	50.1999
324.732	50.12919
325.075	50.03703
325.418	50.01102
325.76	50.08787
326.103	50.11739
326.445	50.17433
326.788	50.28245
327.13	50.02152
327.472	50.28523
327.814	50.12949
328.156	50.14379
328.498	50.25616
328.84	50.26273
329.182	50.09346
329.524	50.24529
329.866	50.14842
330.207	50.09806
330.549	50.03621
330.89	50.26926
331.231	49.91061
331.573	50.23973
331.914	50.17264
332.255	50.11274
332.596	50.11611
332.937	50.3328
333.278	50.06815
333.619	50.19086
333.96	50.17303
334.3	50.21711
334.641	50.30634
334.981	50.19648
335.322	50.28324
335.662	50.10161
336.003	50.17034
336.343	50.32356
336.683	50.55379
337.023	50.36154
337.363	50.28313
337.703	50.23731
338.043	50.41493
338.382	50.3964
338.722	50.48857
339.062	50.37899
339.401	50.44346
339.741	50.31738
340.08	50.48402
340.419	50.62843
340.759	50.54147
341.098	50.57198
341.437	50.42985
341.776	50.45468
342.115	50.61802
342.454	50.50387
342.792	50.54373
343.131	50.63607
343.47	50.66026
343.808	50.74461
344.147	50.84785
344.485	50.69868
344.823	50.63548
345.162	50.76241
345.5	50.81511
345.838	50.68745
346.176	50.71051
346.514	50.76071
346.851	50.77374
347.189	50.9535
347.527	50.96383
347.865	50.96797
348.202	50.96538
348.54	50.67756
348.877	50.96215
349.214	50.85947
349.551	50.95054
349.889	50.98782
350.226	50.92327
350.563	50.88312
350.9	50.98247
351.236	51.09853
351.573	51.00464
351.91	51.02287
352.247	51.01619
352.583	50.97295
352.92	51.09878
353.256	51.21954
353.592	50.97532
353.929	50.89778
354.265	51.0144
354.601	50.91777
354.937	50.89881
355.273	51.06633
355.609	50.88958
355.944	51.04355
356.28	51.06584
356.616	50.87602
356.951	51.03748
357.287	51.4377
357.622	51.21981
357.957	51.16272
358.293	51.14205
358.628	51.12046
358.963	51.14334
359.298	51.03297
359.633	51.2354
359.968	51.08764
360.303	51.12038
360.637	51.16969
360.972	51.12261
361.307	51.17524
361.641	50.97987
361.975	51.2027
362.31	51.21195
362.644	51.09459
362.978	51.22186
363.312	51.05268
363.646	50.91238
363.98	51.06339
364.314	50.97084
364.648	51.15093
364.982	50.96603
365.315	50.94724
365.649	51.05134
365.983	51.10898
366.316	51.15759
366.649	50.99216
366.983	51.09054
367.316	51.04484
367.649	51.28615
367.982	51.1398
368.315	51.1708
368.648	50.99354
368.981	51.02427
369.313	50.96305
369.646	51.18306
369.979	51.26908
370.311	51.01357
370.644	51.12494
370.976	51.08332
371.308	50.84591
371.641	50.9472
371.973	50.80113
372.305	50.86814
372.637	50.88702
372.969	51.00255
373.301	50.8259
373.632	50.66964
373.964	51.24096
374.296	50.90475
374.627	50.86217
374.959	50.6736
375.29	50.74418
375.621	51.00966
375.953	50.98668
376.284	50.89974
376.615	50.80951
376.946	51.0288
377.277	50.65627
377.608	50.65506
377.939	50.9856
378.269	50.93151
378.6	50.85438
378.931	50.7734
379.261	50.66197
379.591	50.5729
379.922	50.55976
380.252	50.66219
380.582	50.72754
380.912	50.97775
381.242	50.83716
381.572	50.8021
381.902	50.9299
382.232	50.81847
382.562	50.78189
382.891	50.4165
383.221	50.66627
383.551	50.77662
383.88	50.8124
384.209	50.69529
384.539	50.57288
384.868	50.80074
385.197	50.7815
385.526	50.88861
385.855	50.84821
386.184	50.68871
386.513	50.78917
386.842	50.53056
387.17	50.72113
387.499	50.61107
387.828	50.68085
388.156	50.84058
388.484	50.81603
388.813	50.70008
389.141	50.33006
389.469	50.36221
389.797	50.48649
390.125	50.70551
390.453	50.49433
390.781	50.72319
391.109	50.71803
391.437	50.48729
391.764	50.74683
392.092	50.3911
392.419	50.36876
392.747	50.93159
393.074	50.59227
393.401	50.70149
393.729	50.75467
394.056	50.56623
394.383	50.65163
394.71	50.83581
395.037	50.65691
395.363	50.661
395.69	50.67459
396.017	50.69969
396.344	50.77056
396.67	50.65584
396.997	50.57137
397.323	50.70895
397.649	50.46291
397.975	50.54608
398.302	50.2287
398.628	50.71422
398.954	50.27243
399.28	50.22746
399.606	50.33097
399.931	50.5869
400.257	50.77893
400.583	50.45322
400.908	50.61061
401.234	50.49282
401.559	50.66722
401.884	50.49798
402.21	50.53873
402.535	50.88405
402.86	50.6145
403.185	51.09832
403.51	50.65008
403.835	50.72193
404.16	50.61259
404.485	50.71281
404.809	50.64654
405.134	50.57322
405.458	50.56808
405.783	50.59429
406.107	50.52022
406.432	50.76737
406.756	50.66315
407.08	50.65251
407.404	50.63242
407.728	50.70089
408.052	51.1109
408.376	50.82305
408.7	50.76156
409.023	50.90235
409.347	51.02499
409.671	50.85515
409.994	50.9341
410.317	50.69429
410.641	51.05692
410.964	50.98521
411.287	51.26154
411.61	50.90188
411.933	50.85925
412.256	51.01518
412.579	50.99524
412.902	50.83848
413.225	50.88375
413.548	51.04744
413.87	50.98309
414.193	51.01332
414.515	50.95106
414.838	51.12255
415.16	51.00347
415.482	50.7928
415.804	51.09528
416.126	50.80885
416.448	51.09244
416.77	51.14543
417.092	51.16647
417.414	51.34047
417.736	51.07152
418.057	51.06961
418.379	51.11603
418.701	51.15873
419.022	51.31621
419.343	51.23227
419.665	51.51055
419.986	51.28509
420.307	51.06625
420.628	51.36942
420.949	51.21253
421.27	51.38986
421.591	51.42359
421.912	51.4658
422.232	51.56384
422.553	51.3802
422.873	51.6077
423.194	51.2953
423.514	51.47227
423.835	51.45753
424.155	51.53309
424.475	51.7356
424.795	51.82997
425.115	52.01173
425.435	52.12311
425.755	51.72705
426.075	51.87663
426.395	51.85246
426.714	51.91811
427.034	52.32523
427.354	52.26277
427.673	52.07419
427.992	52.20433
428.312	52.18363
428.631	52.34916
428.95	52.02895
429.269	51.89222
429.588	51.92043
429.907	51.92369
430.226	52.4212
430.545	52.37355
430.864	52.40423
431.182	52.03742
431.501	52.37283
431.819	52.42768
432.138	52.20707
432.456	52.31517
432.774	52.30107
433.093	52.7827
433.411	52.47459
433.729	52.60815
434.047	52.63309
434.365	52.86304
434.683	53.1215
435	53.09456
435.318	52.93568
435.636	52.86774
435.953	52.56525
436.271	52.98942
436.588	52.43337
436.906	52.94017
437.223	53.19014
437.54	53.24904
437.857	53.03431
438.174	53.07743
438.491	52.99528
438.808	52.9642
439.125	53.23535
439.442	53.39294
439.758	53.13364
440.075	53.23556
440.392	53.36041
440.708	53.46025
441.024	53.03875
441.341	53.38279
441.657	53.26884
441.973	53.241
442.289	53.57918
442.605	53.5489
442.921	53.77799
443.237	53.6461
443.553	53.04593
443.869	52.99784
444.184	53.71055
444.5	53.23672
444.816	53.00087
445.131	53.65766
445.446	53.83914
445.762	53.31988
446.077	53.54408
446.392	53.71417
446.707	53.53621
447.022	53.94993
447.337	53.53044
447.652	53.9615
447.967	53.85625
448.282	54.04027
448.596	54.13712
448.911	54.12805
449.225	53.87761
449.54	53.53717
449.854	53.47483
450.169	53.81644
450.483	53.88249
450.797	54.00753
451.111	53.98792
451.425	53.92789
451.739	53.66374
452.053	53.80298
452.367	53.91995
452.68	53.65405
452.994	54.1363
453.308	53.91008
453.621	53.65293
453.935	53.63967
454.248	54.29235
454.561	53.65696
454.874	53.81085
455.188	54.00385
455.501	54.0639
455.814	54.08273
456.127	53.93769
456.44	53.80264
456.752	54.31695
457.065	53.85339
457.378	54.11624
457.69	53.39094
458.003	53.84536
458.315	53.67871
458.628	53.87794
458.94	53.87974
459.252	53.54654
459.564	53.52677
459.876	53.63299
460.188	54.07111
460.5	53.85918
460.812	53.82751
461.124	53.32635
461.436	53.64227
461.747	53.55258
462.059	53.78663
462.37	53.81774
462.682	53.67076
462.993	54.00282
463.304	53.67902
463.616	53.72173
463.927	53.3953
464.238	53.74545
464.549	53.40077
464.86	53.66289
465.171	53.84986
465.481	53.73673
465.792	53.65055
466.103	53.51287
466.413	53.65991
466.724	53.37894
467.034	53.47582
467.345	53.48989
467.655	53.62047
467.965	53.67697
468.275	53.54403
468.585	53.75877
468.895	53.54794
469.205	53.57326
469.515	53.47555
469.825	53.48705
470.135	53.27078
470.444	53.58399
470.754	53.79889
471.063	53.43188
471.373	53.62386
471.682	53.35756
471.991	53.73593
472.301	53.55886
472.61	53.74913
472.919	53.59656
473.228	53.65378
473.537	53.73339
473.846	53.73396
474.155	53.56703
474.463	53.76642
474.772	53.57743
475.08	53.72538
475.389	53.4594
475.697	53.35394
476.006	53.41854
476.314	53.6963
476.622	53.88032
476.93	53.50501
477.239	53.29355
477.547	53.33113
477.855	53.86156
478.162	53.41609
478.47	53.56678
478.778	53.45813
479.086	53.24666
479.393	53.55888
479.701	53.27223
480.008	53.43451
480.315	53.52049
480.623	53.79569
480.93	53.31389
481.237	53.62558
481.544	53.35505
481.851	53.22107
482.158	53.40482
482.465	53.28857
482.772	53.53518
483.079	53.26995
483.385	53.2933
483.692	53.37154
483.998	53.12484
484.305	53.4767
484.611	53.33417
484.918	53.18554
485.224	53.39772
485.53	53.32485
485.836	53.57505
486.142	53.36273
486.448	53.13428
486.754	53.19578
487.06	53.37814
487.366	53.46751
487.671	53.20325
487.977	53.17505
488.282	53.20889
488.588	53.23632
488.893	53.23055
489.199	53.15504
489.504	53.49373
489.809	53.36069
490.114	53.41685
490.419	53.44864
490.724	53.42206
491.029	53.55178
491.334	53.54839
491.639	53.1534
491.943	53.44248
492.248	53.49108
492.553	53.29371
492.857	53.0068
493.162	52.8862
493.466	53.32525
493.77	53.36733
494.074	53.48843
494.378	53.50968
494.683	53.29355
494.987	53.47539
495.29	53.40095
495.594	53.66409
495.898	53.33221
496.202	53.46292
496.505	53.32885
496.809	53.45735
497.113	53.8021
497.416	53.55166
497.719	53.6285
498.023	53.75629
498.326	53.64193
498.629	53.90729
498.932	53.95037
499.235	53.81
499.538	53.5664
499.841	53.87548
500.144	53.85343
500.446	53.84147
500.749	53.77676
501.052	53.85958
501.354	53.89297
501.657	53.82124
501.959	53.65217
502.261	53.71091
502.564	53.76966
502.866	54.03313
503.168	53.64686
503.47	54.00831
503.772	53.88564
504.074	53.68698
504.376	53.76298
504.677	53.94759
504.979	53.84176
505.281	54.05296
505.582	53.8919
505.884	54.15176
506.185	54.31088
506.486	54.4912
506.788	54.32254
507.089	54.34602
507.39	54.30691
507.691	54.07261
507.992	54.43438
508.293	54.36679
508.594	54.24344
508.895	54.4468
509.195	54.27354
509.496	54.71601
509.797	54.57545
510.097	54.56235
510.398	54.77732
510.698	54.51457
510.998	54.70508
511.298	54.79249
511.599	54.96458
511.899	55.07487
512.199	54.91767
512.499	55.0084
512.799	55.01037
513.098	55.39488
513.398	55.03677
513.698	55.30626
513.997	55.48136
514.297	55.34053
514.596	55.53026
514.896	55.56796
515.195	55.79339
515.494	55.93751
515.794	55.7699
516.093	55.76225
516.392	56.0045
516.691	55.97551
516.99	56.33785
517.288	56.18013
517.587	56.12861
517.886	56.29002
518.185	56.51683
518.483	56.59172
518.782	56.55742
519.08	56.74028
519.378	56.86085
519.677	57.03371
519.975	57.23702
520.273	56.90371
520.571	57.04246
520.869	57.29459
521.167	57.63732
521.465	57.31505
521.763	57.54098
522.061	57.67513
522.358	57.49828
522.656	57.76146
522.953	57.96662
523.251	57.70347
523.548	57.91829
523.846	57.99769
524.143	58.32687
524.44	58.14191
524.737	58.19788
525.034	58.2927
525.331	58.42451
525.628	58.14562
525.925	58.65422
526.222	58.70444
526.518	58.80627
526.815	58.49632
527.112	58.73651
527.408	58.93879
527.705	58.79172
528.001	58.99181
528.297	58.8414
528.593	58.98516
528.89	58.93146
529.186	59.06662
529.482	59.31585
529.778	59.22046
530.074	59.1713
530.369	59.338
530.665	59.21248
530.961	59.34206
531.256	59.36823
531.552	59.46264
531.847	59.52007
532.143	59.35399
532.438	59.38641
532.733	59.32603
533.029	59.38409
533.324	59.24269
533.619	59.63337
533.914	59.3563
534.209	59.56809
534.504	59.28621
534.798	59.45061
535.093	59.42557
535.388	59.52154
535.682	59.61639
535.977	59.14643
536.271	59.17886
536.566	59.1505
536.86	58.96344
537.154	59.38428
537.448	59.37919
537.742	59.22557
538.037	59.13677
538.33	59.30663
538.624	59.44236
538.918	59.37655
539.212	59.18401
539.506	59.32574
539.799	59.35391
540.093	59.34367
540.386	59.28479
540.68	59.28448
540.973	59.36893
541.266	59.52612
541.56	59.41528
541.853	59.66423
542.146	59.55245
542.439	59.6452
542.732	59.77917
543.025	59.40984
543.318	59.68398
543.61	59.72108
543.903	59.81317
544.196	59.66741
544.488	59.69939
544.781	59.83573
545.073	59.74067
545.365	59.89084
545.658	59.75217
545.95	59.98704
546.242	60.15358
546.534	60.07834
546.826	60.12248
547.118	60.1096
547.41	60.26002
547.702	60.35897
547.993	60.25276
548.285	60.35212
548.577	60.41413
548.868	60.57846
549.16	60.43188
549.451	60.58994
549.742	60.41536
550.034	60.39036
550.325	60.5982
550.616	60.47207
550.907	60.65088
551.198	60.64163
551.489	60.70316
551.78	60.64434
552.07	60.6835
552.361	60.94288
552.652	60.61521
552.942	60.79612
553.233	60.90727
553.523	60.62823
553.814	60.91796
554.104	60.89401
554.394	60.85871
554.684	60.69919
554.975	60.79125
555.265	60.66901
555.555	60.79299
555.845	60.60218
556.134	60.90632
556.424	60.69713
556.714	60.91209
557.003	60.81427
557.293	60.77708
557.583	60.79791
557.872	60.76238
558.161	60.6676
558.451	60.90036
558.74	60.72385
559.029	60.97936
559.318	60.73101
559.607	60.76975
559.896	60.69554
560.185	60.77411
560.474	60.5546
560.763	60.64756
561.051	60.67523
561.34	60.6366
561.629	60.69836
561.917	60.52781
562.205	60.63742
562.494	60.70169
562.782	60.4658
563.07	60.37988
563.359	60.35634
563.647	60.4154
563.935	60.42324
564.223	60.28682
564.51	60.41045
564.798	60.32315
565.086	60.35281
565.374	60.08939
565.661	60.41226
565.949	60.07364
566.236	60.06964
566.524	60.01157
566.811	59.83219
567.099	60.01633
567.386	59.96799
567.673	60.01904
567.96	59.89044
568.247	60.02283
568.534	60.03927
568.821	60.02681
569.108	60.05671
569.394	59.72249
569.681	59.85339
569.968	59.78529
570.254	59.73168
570.541	59.64399
570.827	59.64143
571.114	59.6037
571.4	59.69226
571.686	59.72462
571.972	59.65051
572.258	59.5017
572.544	59.39685
572.83	59.3069
573.116	59.53537
573.402	59.35184
573.688	59.40332
573.973	59.26041
574.259	59.32142
574.545	59.25616
574.83	59.17067
575.116	59.26797
575.401	59.0897
575.686	59.14264
575.971	59.27423
576.257	59.188
576.542	59.10055
576.827	59.43277
577.112	58.91672
577.397	58.96851
577.681	58.78543
577.966	58.94908
